* Measurement data measured by REW V5.20.13
* Source: C:\Users\marcu\OneDrive\Desktop\audio_db\64 Audio U4s mX Foam R.txt
* Format: Comma/Tab/Space delimited data
* Dated: May 29, 2023 8:27:35 AM
* REW Settings:
*  C-weighting compensation: Off
*  Target level: 75.0 dB
* Note: ; Measurement imported from C:\Users\marcu\OneDrive\Desktop\audio_db\64 Audio U4s mX Foam R.txt Format: Comma/Tab/Space delimited data 54613 values loaded, 0 Hz to 20,000 Hz 
* Measurement: 64 Audio U4s mX Foam R
* Smoothing: None
* Frequency Step: 1/48 octave
* Start Frequency: 1.000 Hz
*
* Freq(Hz)	SPL(dB)	Phase(degrees)
1.000000	80.150	121.5355
1.015000	79.980	120.6953
1.030000	79.804	119.8602
1.044000	79.633	119.0858
1.060000	79.431	118.2070
1.075000	79.235	117.3897
1.090000	79.030	116.5791
1.106000	78.806	115.7022
1.120000	78.614	114.8172
1.138000	78.377	113.5116
1.150000	78.223	112.5522
1.172000	77.945	110.6477
1.180000	77.844	109.9187
1.206000	77.514	107.4645
1.220000	77.333	106.1165
1.241000	77.052	104.1049
1.250000	76.927	103.2586
1.265000	76.711	101.8854
1.280000	76.484	100.5768
1.315000	75.903	97.8886
1.320000	75.813	97.5574
1.340000	75.433	96.3951
1.360000	75.018	95.5290
1.380000	74.563	95.0073
1.400000	74.064	94.8787
1.430000	73.223	95.5284
1.450000	72.594	96.5939
1.475000	71.711	98.7373
1.500000	70.603	101.9265
1.525000	69.281	106.0692
1.550000	67.791	111.0271
1.575000	66.178	116.6622
1.600000	64.487	122.8363
1.625000	62.764	129.4112
1.650000	61.053	136.2490
1.675000	59.400	143.2114
1.700000	57.849	150.1604
1.725000	56.447	156.9577
1.750000	55.239	163.4654
1.775000	54.268	169.5452
1.800000	53.582	175.0591
1.825000	53.224	179.8689
1.850000	53.236	-175.9411
1.875000	53.603	-171.9157
1.900000	54.281	-168.0475
1.925000	55.221	-164.3507
1.950000	56.378	-160.8393
1.975000	57.706	-157.5273
2.000000	59.157	-154.4288
2.030000	60.996	-151.0124
2.060000	62.866	-147.9481
2.090000	64.685	-145.2602
2.120000	66.375	-142.9731
2.140000	67.390	-141.6830
2.180000	69.042	-139.6985
2.200000	69.634	-139.0197
2.240000	70.534	-138.5509
2.270000	71.050	-138.9562
2.300000	71.449	-139.9054
2.330000	71.746	-141.3042
2.360000	71.959	-143.0582
2.400000	72.139	-145.7864
2.430000	72.219	-148.0024
2.470000	72.282	-151.0041
2.500000	72.319	-153.1684
2.540000	72.386	-155.7588
2.580000	72.497	-157.8715
2.620000	72.580	-159.9168
2.650000	72.611	-161.4749
2.690000	72.615	-163.5715
2.720000	72.591	-165.1493
2.760000	72.526	-167.2472
2.800000	72.426	-169.3233
2.850000	72.257	-171.8631
2.900000	72.046	-174.3117
2.950000	71.799	-176.6634
3.000000	71.510	-179.0991
3.040000	71.246	178.9173
3.070000	71.028	177.4436
3.110000	70.710	175.5394
3.150000	70.359	173.7527
3.200000	69.874	171.7645
3.250000	69.335	170.1443
3.300000	68.739	168.9921
3.350000	68.024	168.0060
3.400000	67.184	167.0623
3.450000	66.273	166.3612
3.500000	65.342	166.1026
3.550000	64.443	166.4867
3.600000	63.630	167.7135
3.650000	62.954	169.9832
3.700000	62.418	173.7452
3.750000	61.936	179.3587
3.820000	61.372	-170.8392
3.870000	61.070	-163.3240
3.950000	60.802	-152.1923
4.000000	60.793	-146.7959
4.060000	60.988	-142.6950
4.120000	61.485	-140.2096
4.180000	62.197	-138.9402
4.250000	63.157	-138.7012
4.310000	63.968	-139.3081
4.370000	64.654	-140.4308
4.440000	65.219	-142.3690
4.500000	65.611	-145.0259
4.550000	65.891	-147.8021
4.620000	66.225	-152.2605
4.680000	66.472	-156.3461
4.750000	66.729	-161.0752
4.820000	66.951	-165.7601
4.870000	67.073	-169.3244
4.940000	67.205	-174.5059
5.000000	67.292	-179.0147
5.080000	67.387	175.0610
5.150000	67.465	170.1042
5.220000	67.525	165.1488
5.300000	67.569	159.5157
5.380000	67.593	154.1006
5.450000	67.603	149.6936
5.520000	67.607	145.7050
5.600000	67.589	141.4670
5.700000	67.544	136.7014
5.800000	67.503	132.7310
5.900000	67.494	129.7719
6.000000	67.514	127.8669
6.080000	67.536	126.9532
6.150000	67.552	126.4921
6.220000	67.559	126.2591
6.300000	67.710	126.4232
6.400000	67.989	127.3656
6.500000	68.343	128.5773
6.600000	68.761	129.4696
6.700000	69.273	130.0609
6.800000	69.861	130.5287
6.900000	70.461	130.7309
7.000000	71.019	130.5266
7.100000	71.569	129.8848
7.200000	72.103	128.9608
7.300000	72.593	127.9260
7.400000	73.022	126.8366
7.500000	73.404	125.5808
7.620000	73.806	124.0543
7.750000	74.178	122.6160
7.880000	74.472	121.3043
8.000000	74.700	120.2752
8.120000	74.907	119.5242
8.250000	75.091	119.0034
8.380000	75.264	118.7083
8.500000	75.435	118.6111
8.620000	75.607	118.7255
8.750000	75.802	118.9188
8.850000	75.965	119.0277
9.000000	76.229	119.2235
9.120000	76.445	119.3084
9.250000	76.675	119.2380
9.380000	76.907	119.0424
9.500000	77.110	118.7693
9.620000	77.296	118.3996
9.750000	77.485	117.8911
9.880000	77.647	117.3471
10.000000	77.763	116.8336
10.150000	77.875	116.1612
10.300000	77.968	115.5253
10.440000	78.033	114.9718
10.600000	78.097	114.3657
10.750000	78.160	113.8278
10.900000	78.220	113.3078
11.060000	78.288	112.7188
11.200000	78.351	112.1818
11.380000	78.434	111.4305
11.500000	78.489	110.8803
11.720000	78.590	109.7947
11.800000	78.625	109.3772
12.060000	78.735	107.9477
12.200000	78.792	107.1601
12.410000	78.879	105.9551
12.500000	78.925	105.4371
12.650000	79.011	104.5712
12.800000	79.105	103.6978
13.150000	79.336	101.6234
13.200000	79.370	101.3231
13.400000	79.508	100.1064
13.600000	79.645	98.8926
13.800000	79.782	97.6870
14.000000	79.916	96.5264
14.300000	80.116	94.8875
14.500000	80.252	93.8840
14.750000	80.425	92.7101
15.000000	80.604	91.6130
15.250000	80.788	90.5526
15.500000	80.968	89.5168
15.750000	81.142	88.5040
16.000000	81.307	87.5291
16.250000	81.465	86.6168
16.500000	81.617	85.7738
16.750000	81.760	85.0043
17.000000	81.900	84.2805
17.250000	82.035	83.5823
17.500000	82.166	82.8831
17.750000	82.288	82.1678
18.000000	82.401	81.4396
18.250000	82.503	80.7034
18.500000	82.595	79.9742
18.750000	82.680	79.2534
19.000000	82.760	78.5421
19.250000	82.836	77.8285
19.500000	82.911	77.1036
19.750000	82.985	76.3607
20.000000	83.057	75.5962
20.299999	83.142	74.6563
20.600000	83.226	73.6980
20.900000	83.309	72.7279
21.200001	83.393	71.7488
21.400000	83.448	71.0933
21.799999	83.560	69.7871
22.000000	83.616	69.1448
22.400000	83.727	67.9011
22.700001	83.814	67.0112
23.000000	83.902	66.1528
23.299999	83.995	65.3129
23.600000	84.087	64.4854
24.000000	84.206	63.4065
24.299999	84.290	62.6324
24.700001	84.394	61.6686
25.000000	84.471	60.9967
25.400000	84.573	60.1436
25.799999	84.672	59.2985
26.200001	84.765	58.4402
26.500000	84.826	57.7953
26.900000	84.899	56.9535
27.200001	84.948	56.3438
27.600000	85.011	55.5532
28.000000	85.075	54.7629
28.500000	85.153	53.7380
29.000000	85.227	52.6647
29.500000	85.293	51.5743
30.000000	85.355	50.5115
30.400000	85.406	49.6949
30.700001	85.446	49.0973
31.100000	85.503	48.3050
31.500000	85.562	47.5076
32.000000	85.631	46.5160
32.500000	85.694	45.5718
33.000000	85.756	44.6975
33.500000	85.821	43.8612
34.000000	85.886	43.0156
34.500000	85.943	42.1600
35.000000	85.988	41.3326
35.500000	86.029	40.5572
36.000000	86.070	39.8143
36.500000	86.114	39.0695
37.000000	86.155	38.3046
37.500000	86.195	37.5235
38.200001	86.245	36.4286
38.700001	86.277	35.6641
39.500000	86.329	34.4893
40.000000	86.363	33.7804
40.599998	86.408	32.9378
41.200001	86.453	32.0807
41.799999	86.489	31.2248
42.500000	86.516	30.3290
43.099998	86.546	29.6890
43.700001	86.596	29.0388
44.400002	86.655	28.1091
45.000000	86.683	27.2446
45.500000	86.694	26.6026
46.200001	86.715	25.8342
46.799999	86.747	25.1697
47.500000	86.783	24.3216
48.200001	86.810	23.4821
48.700001	86.829	22.9095
49.400002	86.856	22.1159
50.000000	86.875	21.4432
50.799999	86.902	20.5829
51.500000	86.924	19.8528
52.200001	86.946	19.1342
53.000000	86.970	18.3194
53.799999	86.989	17.5169
54.500000	87.007	16.8595
55.200001	87.031	16.1938
56.000000	87.051	15.3796
57.000000	87.074	14.4523
58.000000	87.107	13.3950
59.000000	87.091	12.3920
60.000000	87.110	11.7332
60.799999	87.145	10.9541
61.500000	87.144	10.2585
62.200001	87.143	9.7506
63.000000	87.166	9.1667
64.000000	87.186	8.2917
65.000000	87.192	7.4585
66.000000	87.196	6.6791
67.000000	87.204	5.8906
68.000000	87.205	5.1172
69.000000	87.218	4.3857
70.000000	87.225	3.5568
71.000000	87.218	2.8240
72.000000	87.220	2.1469
73.000000	87.220	1.4776
74.000000	87.224	0.8213
75.000000	87.229	0.1287
76.199997	87.227	-0.7476
77.500000	87.217	-1.6287
78.800003	87.215	-2.5082
80.000000	87.205	-3.2727
81.199997	87.208	-4.0384
82.500000	87.194	-4.8839
83.800003	87.195	-5.6370
85.000000	87.186	-6.4453
86.199997	87.178	-7.1340
87.500000	87.175	-7.8979
88.500000	87.172	-8.4710
90.000000	87.167	-9.3027
91.199997	87.160	-10.0298
92.500000	87.139	-10.7325
93.800003	87.125	-11.4398
95.000000	87.116	-12.0557
96.199997	87.108	-12.7140
97.500000	87.100	-13.4018
98.800003	87.085	-14.0838
100.000000	87.075	-14.6860
101.500000	87.055	-15.4448
103.000000	87.040	-16.1690
104.400002	87.032	-16.8699
106.000000	87.008	-17.6615
107.500000	86.995	-18.3334
109.000000	86.980	-19.0667
110.599998	86.962	-19.8400
112.000000	86.937	-20.4446
113.800003	86.929	-21.2926
115.000000	86.910	-21.8285
117.199997	86.887	-22.7279
118.000000	86.880	-23.0497
120.599998	86.840	-24.2462
122.000000	86.834	-24.7040
124.099998	86.794	-25.6678
125.000000	86.780	-26.0337
126.500000	86.771	-26.5476
128.000000	86.767	-27.2762
131.500000	86.727	-28.5416
132.000000	86.724	-28.7760
134.000000	86.705	-29.5915
136.000000	86.680	-30.3291
138.000000	86.663	-31.0656
140.000000	86.637	-31.8306
143.000000	86.608	-32.8538
145.000000	86.589	-33.5643
147.500000	86.566	-34.4286
150.000000	86.542	-35.2759
152.500000	86.518	-36.1113
155.000000	86.494	-36.9344
157.500000	86.470	-37.8076
160.000000	86.445	-38.5770
162.500000	86.406	-39.4026
165.000000	86.362	-40.1649
167.500000	86.325	-40.9209
170.000000	86.286	-41.7140
172.500000	86.255	-42.3736
175.000000	86.212	-43.1212
177.500000	86.182	-43.8241
180.000000	86.147	-44.5910
182.500000	86.103	-45.2856
185.000000	86.065	-45.9601
187.500000	86.033	-46.6276
190.000000	85.996	-47.3295
192.500000	85.962	-47.9885
195.000000	85.931	-48.6231
197.500000	85.892	-49.3030
200.000000	85.869	-49.9743
203.000000	85.834	-50.6867
206.000000	85.799	-51.4381
209.000000	85.768	-52.1592
212.000000	85.737	-52.8702
214.000000	85.714	-53.4253
218.000000	85.672	-54.3427
220.000000	85.657	-54.8292
224.000000	85.622	-55.7507
227.000000	85.593	-56.4622
230.000000	85.564	-57.1443
233.000000	85.535	-57.7988
236.000000	85.511	-58.4582
240.000000	85.478	-59.2739
243.000000	85.458	-59.9822
247.000000	85.421	-60.8090
250.000000	85.403	-61.4338
254.000000	85.374	-62.2916
258.000000	85.339	-63.0903
262.000000	85.320	-63.8958
265.000000	85.292	-64.5113
269.000000	85.279	-65.2843
272.000000	85.257	-65.8920
276.000000	85.238	-66.6462
280.000000	85.213	-67.3892
285.000000	85.188	-68.3811
290.000000	85.163	-69.2896
295.000000	85.141	-70.2222
300.000000	85.115	-71.1231
304.000000	85.102	-71.8356
307.000000	85.089	-72.3531
311.000000	85.068	-73.0928
315.000000	85.057	-73.7750
320.000000	85.040	-74.6286
325.000000	85.033	-75.5018
330.000000	85.016	-76.3604
335.000000	84.999	-77.1890
340.000000	84.990	-77.9302
345.000000	84.988	-78.7933
350.000000	84.973	-79.5906
355.000000	84.965	-80.4414
360.000000	84.949	-81.2489
365.000000	84.942	-82.0410
370.000000	84.948	-82.8048
375.000000	84.932	-83.5613
382.000000	84.935	-84.6693
387.000000	84.925	-85.4610
395.000000	84.920	-86.6522
400.000000	84.916	-87.4409
406.000000	84.929	-88.3249
412.000000	84.921	-89.1629
418.000000	84.917	-90.1296
425.000000	84.923	-91.0217
431.000000	84.927	-91.9588
437.000000	84.927	-92.8073
444.000000	84.933	-93.7701
450.000000	84.942	-94.5881
455.000000	84.939	-95.3504
462.000000	84.946	-96.2649
468.000000	84.956	-97.1288
475.000000	84.957	-98.0157
482.000000	84.960	-98.9574
487.000000	84.974	-99.6442
494.000000	84.976	-100.5054
500.000000	84.989	-101.3104
508.000000	84.991	-102.3453
515.000000	85.005	-103.1912
522.000000	84.998	-104.1037
530.000000	85.022	-105.0506
538.000000	85.027	-105.9869
545.000000	85.042	-106.8937
552.000000	85.041	-107.6102
560.000000	85.048	-108.5239
570.000000	85.063	-109.5623
580.000000	85.072	-110.6308
590.000000	85.094	-111.6468
600.000000	85.120	-112.5401
608.000000	85.149	-113.2490
615.000000	85.178	-113.9309
622.000000	85.199	-114.5734
630.000000	85.250	-115.3737
640.000000	85.295	-116.4083
650.000000	85.347	-117.5234
660.000000	85.392	-118.6088
670.000000	85.424	-119.7564
680.000000	85.441	-120.7971
690.000000	85.470	-121.9014
700.000000	85.484	-122.9395
710.000000	85.503	-123.9386
720.000000	85.512	-124.9638
730.000000	85.513	-125.8845
740.000000	85.516	-126.7061
750.000000	85.525	-127.6056
762.000000	85.541	-128.5475
775.000000	85.551	-129.5652
788.000000	85.561	-130.4766
800.000000	85.566	-131.2910
812.000000	85.572	-132.0801
825.000000	85.576	-132.8569
838.000000	85.580	-133.5633
850.000000	85.598	-134.2147
862.000000	85.605	-134.8341
875.000000	85.633	-135.4330
885.000000	85.651	-135.8619
900.000000	85.682	-136.4887
912.000000	85.720	-136.9487
925.000000	85.766	-137.4675
938.000000	85.809	-137.9858
950.000000	85.856	-138.3646
962.000000	85.910	-138.8111
975.000000	85.962	-139.3015
988.000000	86.036	-139.7139
1000.000000	86.099	-140.2831
1015.000000	86.205	-140.6179
1030.000000	86.311	-141.1979
1044.000000	86.429	-141.6097
1060.000000	86.557	-142.2148
1075.000000	86.675	-142.8107
1090.000000	86.810	-143.3767
1106.000000	86.938	-144.0406
1120.000000	87.065	-144.6372
1138.000000	87.219	-145.3770
1150.000000	87.320	-145.9141
1172.000000	87.520	-146.8668
1180.000000	87.590	-147.2532
1206.000000	87.816	-148.5525
1220.000000	87.928	-149.2300
1241.000000	88.102	-150.2479
1250.000000	88.172	-150.6953
1265.000000	88.271	-151.4698
1280.000000	88.359	-152.2355
1315.000000	88.567	-154.0697
1320.000000	88.598	-154.3163
1340.000000	88.712	-155.2923
1360.000000	88.822	-156.3254
1380.000000	88.932	-157.2395
1400.000000	89.044	-158.2840
1430.000000	89.195	-159.7375
1450.000000	89.304	-160.7329
1475.000000	89.435	-161.9564
1500.000000	89.563	-163.1406
1525.000000	89.688	-164.2867
1550.000000	89.826	-165.4548
1575.000000	89.949	-166.6676
1600.000000	90.086	-167.8503
1625.000000	90.241	-169.0563
1650.000000	90.412	-170.2506
1675.000000	90.574	-171.4701
1700.000000	90.740	-172.7116
1725.000000	90.898	-173.9874
1750.000000	91.054	-175.2741
1775.000000	91.218	-176.6444
1800.000000	91.369	-177.9861
1825.000000	91.511	-179.4049
1850.000000	91.656	179.1591
1875.000000	91.786	177.6481
1900.000000	91.911	176.1674
1925.000000	92.030	174.5606
1950.000000	92.130	172.9439
1975.000000	92.213	171.3154
2000.000000	92.289	169.5558
2030.000000	92.351	167.6778
2060.000000	92.389	165.6651
2090.000000	92.407	163.7462
2120.000000	92.402	161.8022
2140.000000	92.384	160.5744
2180.000000	92.321	158.2020
2200.000000	92.271	157.0328
2240.000000	92.157	154.9172
2270.000000	92.055	153.4821
2300.000000	91.939	152.1513
2330.000000	91.811	150.9709
2360.000000	91.681	149.9272
2400.000000	91.497	148.7213
2430.000000	91.353	147.9516
2470.000000	91.168	147.1294
2500.000000	91.025	146.6469
2540.000000	90.834	146.1680
2580.000000	90.658	145.8059
2620.000000	90.482	145.6883
2650.000000	90.369	145.5710
2690.000000	90.219	145.6445
2720.000000	90.107	145.7925
2760.000000	89.983	145.9667
2800.000000	89.871	146.3044
2850.000000	89.754	146.7895
2900.000000	89.653	147.3668
2950.000000	89.566	147.9442
3000.000000	89.492	148.6749
3040.000000	89.477	149.1388
3070.000000	89.451	149.5668
3110.000000	89.434	150.1609
3150.000000	89.441	150.7575
3200.000000	89.426	151.5309
3250.000000	89.460	152.2180
3300.000000	89.498	152.9156
3350.000000	89.542	153.5689
3400.000000	89.603	154.2231
3450.000000	89.667	154.7911
3500.000000	89.745	155.3477
3550.000000	89.835	155.8144
3600.000000	89.927	156.2884
3650.000000	90.031	156.6891
3700.000000	90.127	157.0270
3750.000000	90.225	157.2975
3820.000000	90.385	157.6397
3870.000000	90.492	157.8066
3950.000000	90.686	157.9381
4000.000000	90.798	157.8535
4060.000000	90.955	157.8303
4120.000000	91.091	157.6305
4180.000000	91.228	157.2992
4250.000000	91.391	156.6592
4310.000000	91.531	156.0156
4370.000000	91.653	155.1439
4440.000000	91.779	153.9592
4500.000000	91.873	152.6345
4550.000000	91.918	151.4442
4620.000000	91.954	149.4449
4680.000000	91.934	147.5542
4750.000000	91.838	145.1498
4820.000000	91.627	142.6768
4870.000000	91.403	141.0271
4940.000000	90.997	139.2292
5000.000000	90.584	138.3029
5080.000000	90.021	138.3042
5150.000000	89.561	139.0720
5220.000000	89.190	140.5271
5300.000000	88.861	142.5632
5380.000000	88.622	144.8680
5450.000000	88.491	146.9038
5520.000000	88.441	148.9948
5600.000000	88.413	151.2660
5700.000000	88.480	154.0836
5800.000000	88.641	156.4454
5900.000000	88.890	158.1975
6000.000000	89.208	159.0588
6080.000000	89.446	159.2238
6150.000000	89.607	158.7095
6220.000000	89.733	157.9148
6300.000000	89.789	156.7718
6400.000000	89.803	155.4724
6500.000000	89.704	154.7478
6600.000000	89.552	154.8867
6700.000000	89.552	155.6136
6800.000000	89.511	155.7053
6900.000000	89.476	156.3533
7000.000000	89.510	156.6161
7100.000000	89.537	156.4991
7200.000000	89.482	155.9177
7300.000000	89.313	154.9881
7400.000000	88.979	154.4736
7500.000000	88.491	154.7934
7620.000000	87.922	157.1585
7750.000000	87.491	161.5903
7880.000000	87.408	165.6305
8000.000000	87.431	168.1239
8120.000000	87.220	169.7029
8250.000000	86.792	171.2901
8380.000000	86.294	173.7676
8500.000000	85.781	176.8596
8620.000000	85.290	-179.1728
8750.000000	84.797	-174.2445
8850.000000	84.521	-169.9311
9000.000000	84.137	-163.2650
9120.000000	83.939	-157.4729
9250.000000	83.831	-151.1621
9380.000000	83.796	-144.9439
9500.000000	83.801	-138.9145
9620.000000	83.966	-132.5121
9750.000000	84.377	-125.9357
9880.000000	85.236	-119.8661
10000.000000	85.794	-119.8857
10150.000000	86.090	-118.1644
10300.000000	86.341	-116.2493
10440.000000	86.480	-114.7173
10600.000000	86.493	-112.6238
10750.000000	86.428	-109.7804
10900.000000	86.417	-107.4744
11060.000000	86.295	-104.8605
11200.000000	85.999	-102.3650
11380.000000	85.576	-98.1114
11500.000000	85.263	-94.3034
11720.000000	84.844	-85.4307
11800.000000	84.796	-81.8501
12060.000000	84.894	-71.4244
12200.000000	84.998	-66.9682
12410.000000	85.180	-61.4986
12500.000000	85.223	-59.5841
12650.000000	85.193	-56.8002
12800.000000	85.015	-54.4210
13150.000000	83.976	-49.1185
13200.000000	83.779	-48.3962
13400.000000	82.779	-43.3562
13600.000000	81.746	-36.6914
13800.000000	80.684	-28.4769
14000.000000	79.728	-19.3227
14300.000000	78.614	-3.9830
14500.000000	78.046	6.1911
14750.000000	77.331	18.8952
15000.000000	76.496	29.6558
15250.000000	75.453	46.3687
15500.000000	75.450	62.8713
15750.000000	75.628	75.3251
16000.000000	75.267	88.1571
16250.000000	75.243	100.2399
16500.000000	74.948	119.2526
16750.000000	76.353	142.6723
17000.000000	78.667	158.4836
17250.000000	81.129	168.6073
17500.000000	83.647	172.8290
17750.000000	86.043	170.9523
18000.000000	87.573	161.1094
18250.000000	87.587	148.4236
18500.000000	86.355	139.6608
18750.000000	84.608	135.1773
19000.000000	82.300	134.1635
19250.000000	79.822	137.8622
19500.000000	77.277	144.0348
19750.000000	74.847	154.5311
