* Measurement data measured by REW V5.20.13
* Source: C:\Users\marcu\OneDrive\Desktop\audio_db\64 Audio U4s m20 Foam L.txt
* Format: Comma/Tab/Space delimited data
* Dated: May 29, 2023 8:27:35 AM
* REW Settings:
*  C-weighting compensation: Off
*  Target level: 75.0 dB
* Note: ; Measurement imported from C:\Users\marcu\OneDrive\Desktop\audio_db\64 Audio U4s m20 Foam L.txt Format: Comma/Tab/Space delimited data 54613 values loaded, 0 Hz to 20,000 Hz 
* Measurement: 64 Audio U4s m20 Foam L
* Smoothing: None
* Frequency Step: 1/48 octave
* Start Frequency: 1.000 Hz
*
* Freq(Hz)	SPL(dB)	Phase(degrees)
1.000000	80.602	154.6264
1.015000	80.568	154.3103
1.030000	80.534	153.9987
1.044000	80.502	153.7122
1.060000	80.465	153.3900
1.075000	80.430	153.0933
1.090000	80.395	152.8020
1.106000	80.358	152.4971
1.120000	80.324	152.2330
1.138000	80.280	151.8967
1.150000	80.251	151.6747
1.172000	80.195	151.2727
1.180000	80.175	151.1283
1.206000	80.108	150.6655
1.220000	80.071	150.4208
1.241000	80.015	150.0603
1.250000	79.992	149.9083
1.265000	79.952	149.6585
1.280000	79.912	149.4131
1.315000	79.818	148.8594
1.320000	79.805	148.7826
1.340000	79.752	148.4812
1.360000	79.699	148.1897
1.380000	79.647	147.9086
1.400000	79.595	147.6383
1.430000	79.520	147.2543
1.450000	79.471	147.0134
1.475000	79.411	146.7298
1.500000	79.350	146.4650
1.525000	79.288	146.2182
1.550000	79.226	145.9887
1.575000	79.164	145.7758
1.600000	79.103	145.5788
1.625000	79.042	145.3970
1.650000	78.982	145.2296
1.675000	78.925	145.0761
1.700000	78.869	144.9357
1.725000	78.817	144.8076
1.750000	78.767	144.6913
1.775000	78.721	144.5860
1.800000	78.680	144.4911
1.825000	78.642	144.4057
1.850000	78.609	144.3345
1.875000	78.578	144.2878
1.900000	78.549	144.2632
1.925000	78.523	144.2574
1.950000	78.499	144.2672
1.975000	78.478	144.2896
2.000000	78.460	144.3215
2.030000	78.443	144.3676
2.060000	78.431	144.4174
2.090000	78.424	144.4653
2.120000	78.423	144.5060
2.140000	78.426	144.5263
2.180000	78.441	144.5436
2.200000	78.453	144.5375
2.240000	78.487	144.5280
2.270000	78.520	144.5295
2.300000	78.560	144.5336
2.330000	78.606	144.5359
2.360000	78.658	144.5321
2.400000	78.734	144.5099
2.430000	78.797	144.4747
2.470000	78.886	144.3947
2.500000	78.956	144.3042
2.540000	79.054	144.1348
2.580000	79.156	143.9024
2.620000	79.267	143.6229
2.650000	79.357	143.3858
2.690000	79.483	143.0341
2.720000	79.582	142.7442
2.760000	79.718	142.3238
2.800000	79.857	141.8655
2.850000	80.033	141.2411
2.900000	80.208	140.5615
2.950000	80.380	139.8259
3.000000	80.554	139.0140
3.040000	80.697	138.3133
3.070000	80.805	137.7621
3.110000	80.950	136.9985
3.150000	81.094	136.2078
3.200000	81.273	135.1915
3.250000	81.448	134.1561
3.300000	81.618	133.1142
3.350000	81.784	132.0436
3.400000	81.948	130.9309
3.450000	82.110	129.7881
3.500000	82.268	128.6271
3.550000	82.424	127.4600
3.600000	82.575	126.2987
3.650000	82.723	125.1553
3.700000	82.866	124.0276
3.750000	83.005	122.8920
3.820000	83.193	121.3008
3.870000	83.323	120.1738
3.950000	83.525	118.4081
4.000000	83.647	117.3399
4.060000	83.791	116.1016
4.120000	83.930	114.8926
4.180000	84.064	113.7132
4.250000	84.216	112.3803
4.310000	84.344	111.2796
4.370000	84.471	110.2219
4.440000	84.618	109.0472
4.500000	84.742	108.0898
4.550000	84.843	107.3238
4.620000	84.984	106.2953
4.680000	85.105	105.4501
4.750000	85.247	104.5007
4.820000	85.391	103.5961
4.870000	85.494	102.9842
4.940000	85.639	102.1659
5.000000	85.765	101.4913
5.080000	85.933	100.6157
5.150000	86.081	99.8602
5.220000	86.232	99.1309
5.300000	86.406	98.3276
5.380000	86.581	97.5428
5.450000	86.733	96.8600
5.520000	86.884	96.1722
5.600000	87.056	95.3903
5.700000	87.271	94.4214
5.800000	87.481	93.4572
5.900000	87.683	92.4925
6.000000	87.880	91.5237
6.080000	88.033	90.7517
6.150000	88.163	90.0833
6.220000	88.289	89.4254
6.300000	88.427	88.6838
6.400000	88.593	87.7674
6.500000	88.751	86.8736
6.600000	88.902	86.0138
6.700000	89.046	85.1885
6.800000	89.182	84.3937
6.900000	89.313	83.6307
7.000000	89.441	82.9015
7.100000	89.564	82.2102
7.200000	89.684	81.5493
7.300000	89.801	80.9089
7.400000	89.917	80.2870
7.500000	90.030	79.6905
7.620000	90.164	78.9913
7.750000	90.306	78.2344
7.880000	90.446	77.4871
8.000000	90.572	76.7976
8.120000	90.693	76.0980
8.250000	90.820	75.3320
8.380000	90.942	74.5614
8.500000	91.047	73.8468
8.620000	91.148	73.1267
8.750000	91.250	72.3502
8.850000	91.325	71.7605
9.000000	91.431	70.8830
9.120000	91.510	70.1921
9.250000	91.592	69.4599
9.380000	91.670	68.7422
9.500000	91.740	68.0894
9.620000	91.810	67.4460
9.750000	91.885	66.7598
9.880000	91.951	66.0760
10.000000	91.998	65.4445
10.150000	92.045	64.6565
10.300000	92.085	63.8613
10.440000	92.115	63.1118
10.600000	92.146	62.2495
10.750000	92.175	61.4352
10.900000	92.202	60.6169
11.060000	92.228	59.7490
11.200000	92.248	58.9920
11.380000	92.273	58.0302
11.500000	92.288	57.3981
11.720000	92.316	56.2567
11.800000	92.326	55.8481
12.060000	92.359	54.5410
12.200000	92.375	53.8476
12.410000	92.402	52.8206
12.500000	92.421	52.3840
12.650000	92.461	51.6610
12.800000	92.505	50.9451
13.150000	92.605	49.3046
13.200000	92.619	49.0747
13.400000	92.673	48.1666
13.600000	92.725	47.2798
13.800000	92.776	46.4157
14.000000	92.825	45.5736
14.300000	92.896	44.3504
14.500000	92.942	43.5593
14.750000	92.996	42.5964
15.000000	93.046	41.6621
15.250000	93.093	40.7572
15.500000	93.136	39.8809
15.750000	93.176	39.0315
16.000000	93.216	38.2048
16.250000	93.257	37.3942
16.500000	93.300	36.5959
16.750000	93.338	35.8052
17.000000	93.373	35.0224
17.250000	93.403	34.2483
17.500000	93.431	33.4847
17.750000	93.455	32.7329
18.000000	93.477	31.9910
18.250000	93.497	31.2569
18.500000	93.517	30.5254
18.750000	93.535	29.7940
19.000000	93.552	29.0609
19.250000	93.568	28.3268
19.500000	93.583	27.5947
19.750000	93.596	26.8670
20.000000	93.609	26.1476
20.299999	93.625	25.2968
20.600000	93.642	24.4605
20.900000	93.660	23.6383
21.200001	93.678	22.8293
21.400000	93.690	22.2971
21.799999	93.715	21.2506
22.000000	93.727	20.7369
22.400000	93.750	19.7300
22.700001	93.767	18.9947
23.000000	93.782	18.2786
23.299999	93.796	17.5828
23.600000	93.809	16.9058
24.000000	93.825	16.0269
24.299999	93.836	15.3795
24.700001	93.847	14.5272
25.000000	93.852	13.8972
25.400000	93.856	13.0757
25.799999	93.857	12.2798
26.200001	93.855	11.5027
26.500000	93.855	10.9222
26.900000	93.852	10.1416
27.200001	93.847	9.5527
27.600000	93.838	8.7759
28.000000	93.826	8.0280
28.500000	93.814	7.1387
29.000000	93.810	6.2605
29.500000	93.811	5.3471
30.000000	93.809	4.3991
30.400000	93.802	3.6473
30.700001	93.795	3.1033
31.100000	93.785	2.4105
31.500000	93.775	1.7468
32.000000	93.765	0.9363
32.500000	93.754	0.1359
33.000000	93.741	-0.6466
33.500000	93.726	-1.4029
34.000000	93.711	-2.1402
34.500000	93.695	-2.8739
35.000000	93.677	-3.6093
35.500000	93.656	-4.3391
36.000000	93.634	-5.0539
36.500000	93.611	-5.7536
37.000000	93.588	-6.4462
37.500000	93.567	-7.1370
38.200001	93.535	-8.0958
38.700001	93.511	-8.7653
39.500000	93.473	-9.8013
40.000000	93.452	-10.4328
40.599998	93.427	-11.1822
41.200001	93.402	-11.9218
41.799999	93.375	-12.6462
42.500000	93.343	-13.4741
43.099998	93.315	-14.1750
43.700001	93.285	-14.8638
44.400002	93.249	-15.6466
45.000000	93.220	-16.3086
45.500000	93.195	-16.8596
46.200001	93.159	-17.6210
46.799999	93.128	-18.2567
47.500000	93.092	-18.9881
48.200001	93.057	-19.7163
48.700001	93.030	-20.2298
49.400002	92.993	-20.9341
50.000000	92.960	-21.5274
50.799999	92.918	-22.3021
51.500000	92.881	-22.9591
52.200001	92.845	-23.6136
53.000000	92.802	-24.3643
53.799999	92.755	-25.0605
54.500000	92.722	-25.6320
55.200001	92.694	-26.2557
56.000000	92.651	-27.0207
57.000000	92.583	-27.8445
58.000000	92.535	-28.6270
59.000000	92.480	-29.5103
60.000000	92.417	-30.3205
60.799999	92.371	-30.9430
61.500000	92.331	-31.4940
62.200001	92.291	-32.0283
63.000000	92.247	-32.6302
64.000000	92.188	-33.3777
65.000000	92.130	-34.0812
66.000000	92.075	-34.7955
67.000000	92.016	-35.5103
68.000000	91.958	-36.1908
69.000000	91.901	-36.8890
70.000000	91.840	-37.5601
71.000000	91.783	-38.1986
72.000000	91.726	-38.8455
73.000000	91.669	-39.4700
74.000000	91.612	-40.1135
75.000000	91.551	-40.7186
76.199997	91.486	-41.4420
77.500000	91.407	-42.2273
78.800003	91.335	-42.9677
80.000000	91.267	-43.6636
81.199997	91.199	-44.3285
82.500000	91.128	-45.0257
83.800003	91.055	-45.7444
85.000000	90.988	-46.3400
86.199997	90.927	-46.9768
87.500000	90.853	-47.6295
88.500000	90.801	-48.1121
90.000000	90.721	-48.8582
91.199997	90.656	-49.4316
92.500000	90.588	-50.0378
93.800003	90.521	-50.6579
95.000000	90.458	-51.2140
96.199997	90.397	-51.7485
97.500000	90.330	-52.3386
98.800003	90.262	-52.8926
100.000000	90.202	-53.4226
101.500000	90.124	-54.0497
103.000000	90.051	-54.6870
104.400002	89.981	-55.2445
106.000000	89.903	-55.8819
107.500000	89.829	-56.4643
109.000000	89.755	-57.0358
110.599998	89.683	-57.6740
112.000000	89.611	-58.1815
113.800003	89.530	-58.8429
115.000000	89.477	-59.2482
117.199997	89.376	-60.0436
118.000000	89.337	-60.3078
120.599998	89.220	-61.1897
122.000000	89.158	-61.6709
124.099998	89.064	-62.3661
125.000000	89.025	-62.6602
126.500000	88.967	-63.1497
128.000000	88.909	-63.5957
131.500000	88.776	-64.6786
132.000000	88.756	-64.8414
134.000000	88.678	-65.4267
136.000000	88.602	-66.0073
138.000000	88.531	-66.5943
140.000000	88.455	-67.1801
143.000000	88.355	-67.9791
145.000000	88.284	-68.5306
147.500000	88.194	-69.2083
150.000000	88.109	-69.8457
152.500000	88.029	-70.5028
155.000000	87.946	-71.0933
157.500000	87.865	-71.7155
160.000000	87.782	-72.2775
162.500000	87.695	-72.8788
165.000000	87.604	-73.5058
167.500000	87.513	-74.0467
170.000000	87.422	-74.6183
172.500000	87.343	-75.1476
175.000000	87.260	-75.6766
177.500000	87.174	-76.2161
180.000000	87.089	-76.7717
182.500000	87.017	-77.2612
185.000000	86.932	-77.7609
187.500000	86.853	-78.2372
190.000000	86.779	-78.7114
192.500000	86.701	-79.1850
195.000000	86.634	-79.6732
197.500000	86.563	-80.1458
200.000000	86.493	-80.5897
203.000000	86.421	-81.1412
206.000000	86.345	-81.6824
209.000000	86.269	-82.2021
212.000000	86.190	-82.7274
214.000000	86.153	-83.0750
218.000000	86.062	-83.7169
220.000000	86.016	-84.0689
224.000000	85.922	-84.6895
227.000000	85.868	-85.2096
230.000000	85.808	-85.6231
233.000000	85.748	-86.1071
236.000000	85.688	-86.5672
240.000000	85.610	-87.1413
243.000000	85.556	-87.6129
247.000000	85.490	-88.2058
250.000000	85.440	-88.5918
254.000000	85.371	-89.1363
258.000000	85.298	-89.7222
262.000000	85.242	-90.2441
265.000000	85.200	-90.6629
269.000000	85.147	-91.1877
272.000000	85.106	-91.5530
276.000000	85.041	-92.0815
280.000000	84.993	-92.6055
285.000000	84.940	-93.2415
290.000000	84.879	-93.7917
295.000000	84.821	-94.4766
300.000000	84.771	-95.0539
304.000000	84.729	-95.5266
307.000000	84.703	-95.8684
311.000000	84.665	-96.3545
315.000000	84.621	-96.8409
320.000000	84.584	-97.4148
325.000000	84.555	-97.9669
330.000000	84.505	-98.4816
335.000000	84.475	-99.0740
340.000000	84.442	-99.6048
345.000000	84.413	-100.1875
350.000000	84.381	-100.6986
355.000000	84.360	-101.2493
360.000000	84.340	-101.7512
365.000000	84.305	-102.2598
370.000000	84.286	-102.7694
375.000000	84.271	-103.3615
382.000000	84.243	-104.0396
387.000000	84.229	-104.5798
395.000000	84.207	-105.4706
400.000000	84.215	-105.9544
406.000000	84.190	-106.5051
412.000000	84.184	-107.1132
418.000000	84.183	-107.6957
425.000000	84.184	-108.4565
431.000000	84.175	-109.0066
437.000000	84.180	-109.5767
444.000000	84.178	-110.2821
450.000000	84.183	-110.8858
455.000000	84.180	-111.3488
462.000000	84.182	-111.9646
468.000000	84.203	-112.6418
475.000000	84.202	-113.3599
482.000000	84.213	-113.9591
487.000000	84.227	-114.4405
494.000000	84.225	-115.1511
500.000000	84.238	-115.7385
508.000000	84.255	-116.4484
515.000000	84.273	-117.1509
522.000000	84.295	-117.8004
530.000000	84.306	-118.6232
538.000000	84.336	-119.3387
545.000000	84.342	-120.0675
552.000000	84.375	-120.6752
560.000000	84.398	-121.4141
570.000000	84.411	-122.4274
580.000000	84.443	-123.3408
590.000000	84.464	-124.2324
600.000000	84.486	-125.1514
608.000000	84.492	-125.8665
615.000000	84.513	-126.5030
622.000000	84.530	-127.0807
630.000000	84.538	-127.7812
640.000000	84.553	-128.5892
650.000000	84.581	-129.3517
660.000000	84.601	-130.1185
670.000000	84.616	-130.8802
680.000000	84.638	-131.6975
690.000000	84.654	-132.3907
700.000000	84.680	-133.0673
710.000000	84.702	-133.8018
720.000000	84.712	-134.4072
730.000000	84.729	-135.1303
740.000000	84.760	-135.7094
750.000000	84.767	-136.2947
762.000000	84.799	-136.9202
775.000000	84.825	-137.6736
788.000000	84.862	-138.3028
800.000000	84.888	-138.8639
812.000000	84.911	-139.4699
825.000000	84.935	-139.9673
838.000000	84.964	-140.4813
850.000000	84.996	-140.9176
862.000000	85.033	-141.4141
875.000000	85.087	-141.8316
885.000000	85.125	-142.1576
900.000000	85.179	-142.6649
912.000000	85.225	-143.0135
925.000000	85.298	-143.4020
938.000000	85.359	-143.7357
950.000000	85.426	-144.0555
962.000000	85.503	-144.3727
975.000000	85.593	-144.7016
988.000000	85.667	-145.1283
1000.000000	85.757	-145.6196
1015.000000	85.878	-145.8641
1030.000000	86.011	-146.3344
1044.000000	86.132	-146.8104
1060.000000	86.288	-147.3123
1075.000000	86.418	-147.9244
1090.000000	86.559	-148.4184
1106.000000	86.707	-149.0229
1120.000000	86.845	-149.6253
1138.000000	87.007	-150.3694
1150.000000	87.122	-150.9148
1172.000000	87.326	-151.9183
1180.000000	87.400	-152.2774
1206.000000	87.630	-153.5096
1220.000000	87.752	-154.1631
1241.000000	87.930	-155.2070
1250.000000	88.012	-155.6709
1265.000000	88.098	-156.4315
1280.000000	88.189	-157.1856
1315.000000	88.403	-158.8847
1320.000000	88.431	-159.1414
1340.000000	88.548	-160.1790
1360.000000	88.657	-161.0967
1380.000000	88.766	-162.1050
1400.000000	88.874	-163.0375
1430.000000	89.027	-164.4269
1450.000000	89.138	-165.3640
1475.000000	89.263	-166.5543
1500.000000	89.387	-167.7048
1525.000000	89.517	-168.8780
1550.000000	89.636	-170.0304
1575.000000	89.767	-171.1732
1600.000000	89.886	-172.3024
1625.000000	90.043	-173.4733
1650.000000	90.206	-174.6814
1675.000000	90.363	-175.8472
1700.000000	90.521	-177.1145
1725.000000	90.674	-178.2982
1750.000000	90.827	-179.5971
1775.000000	90.965	179.0909
1800.000000	91.111	177.7815
1825.000000	91.240	176.4234
1850.000000	91.369	175.0325
1875.000000	91.490	173.5908
1900.000000	91.592	172.1419
1925.000000	91.698	170.6050
1950.000000	91.782	169.1100
1975.000000	91.857	167.5940
2000.000000	91.920	165.9661
2030.000000	91.968	164.1895
2060.000000	91.994	162.3826
2090.000000	91.997	160.5623
2120.000000	91.980	158.8270
2140.000000	91.957	157.6560
2180.000000	91.892	155.5417
2200.000000	91.842	154.5180
2240.000000	91.731	152.5736
2270.000000	91.632	151.2382
2300.000000	91.523	150.0844
2330.000000	91.402	148.9743
2360.000000	91.275	148.0247
2400.000000	91.096	146.9445
2430.000000	90.965	146.2213
2470.000000	90.784	145.4202
2500.000000	90.654	145.0150
2540.000000	90.465	144.5172
2580.000000	90.300	144.1932
2620.000000	90.143	144.0734
2650.000000	90.022	143.9753
2690.000000	89.881	144.0537
2720.000000	89.779	144.1241
2760.000000	89.653	144.3285
2800.000000	89.535	144.6392
2850.000000	89.417	144.9807
2900.000000	89.313	145.5374
2950.000000	89.230	146.1433
3000.000000	89.156	146.8320
3040.000000	89.129	147.2489
3070.000000	89.111	147.6846
3110.000000	89.089	148.2156
3150.000000	89.074	148.7617
3200.000000	89.075	149.4398
3250.000000	89.097	150.1511
3300.000000	89.118	150.8040
3350.000000	89.158	151.4615
3400.000000	89.205	152.0800
3450.000000	89.281	152.6259
3500.000000	89.351	153.1386
3550.000000	89.435	153.6337
3600.000000	89.526	154.0564
3650.000000	89.613	154.3525
3700.000000	89.721	154.6612
3750.000000	89.828	154.8883
3820.000000	89.988	155.0472
3870.000000	90.108	155.1444
3950.000000	90.305	155.0172
4000.000000	90.438	154.7619
4060.000000	90.579	154.5150
4120.000000	90.737	153.9899
4180.000000	90.891	153.2734
4250.000000	91.072	152.1911
4310.000000	91.220	151.0073
4370.000000	91.356	149.5762
4440.000000	91.503	147.2791
4500.000000	91.573	144.9427
4550.000000	91.595	142.5973
4620.000000	91.541	138.8399
4680.000000	91.341	135.1102
4750.000000	90.876	130.7672
4820.000000	90.095	127.2771
4870.000000	89.406	126.0172
4940.000000	88.412	126.6401
5000.000000	87.659	129.1876
5080.000000	87.025	134.0622
5150.000000	86.749	138.2125
5220.000000	86.640	141.8061
5300.000000	86.610	145.1390
5380.000000	86.608	147.9707
5450.000000	86.630	150.1911
5520.000000	86.688	152.2082
5600.000000	86.744	154.5654
5700.000000	86.894	157.3460
5800.000000	87.075	159.9874
5900.000000	87.368	162.1846
6000.000000	87.704	163.7281
6080.000000	88.005	164.4843
6150.000000	88.266	164.6406
6220.000000	88.502	164.1962
6300.000000	88.721	163.3911
6400.000000	88.968	161.8015
6500.000000	89.047	160.2218
6600.000000	89.027	158.9044
6700.000000	88.953	158.2202
6800.000000	88.855	157.8892
6900.000000	88.751	157.9884
7000.000000	88.680	157.9963
7100.000000	88.583	158.0449
7200.000000	88.475	157.9215
7300.000000	88.248	157.7547
7400.000000	87.931	158.1069
7500.000000	87.555	159.2809
7620.000000	87.146	162.1123
7750.000000	86.909	166.1339
7880.000000	86.913	169.2275
8000.000000	86.887	171.1742
8120.000000	86.676	172.7854
8250.000000	86.249	174.4007
8380.000000	85.735	176.9166
8500.000000	85.245	-179.9566
8620.000000	84.738	-176.3013
8750.000000	84.226	-171.5832
8850.000000	83.860	-167.3523
9000.000000	83.399	-161.0927
9120.000000	83.016	-154.6566
9250.000000	82.886	-147.7968
9380.000000	82.451	-141.0049
9500.000000	82.091	-131.6309
9620.000000	82.459	-115.0868
9750.000000	84.892	-113.5317
9880.000000	84.865	-112.6955
10000.000000	85.333	-108.4881
10150.000000	86.095	-105.5802
10300.000000	86.673	-104.0631
10440.000000	87.078	-103.0088
10600.000000	87.367	-102.3496
10750.000000	87.434	-101.8192
10900.000000	87.332	-100.5639
11060.000000	87.143	-98.5834
11200.000000	86.928	-96.1938
11380.000000	86.571	-92.2391
11500.000000	86.340	-88.8853
11720.000000	86.022	-82.0063
11800.000000	85.932	-79.5807
12060.000000	85.792	-71.4879
12200.000000	85.808	-67.2992
12410.000000	85.776	-62.3321
12500.000000	85.761	-60.5839
12650.000000	85.525	-58.0612
12800.000000	85.172	-56.0774
13150.000000	83.676	-49.4321
13200.000000	83.389	-48.2708
13400.000000	82.308	-41.8054
13600.000000	81.179	-34.2897
13800.000000	80.015	-25.0222
14000.000000	79.066	-14.5865
14300.000000	77.761	2.7877
14500.000000	77.174	15.2740
14750.000000	76.629	30.7638
15000.000000	76.358	45.5079
15250.000000	76.229	59.8999
15500.000000	75.988	73.3750
15750.000000	76.106	88.1326
16000.000000	76.065	101.0674
16250.000000	76.057	114.2385
16500.000000	76.883	135.3905
16750.000000	79.104	152.9327
17000.000000	81.682	162.4293
17250.000000	84.188	165.1697
17500.000000	86.246	162.2446
17750.000000	87.508	154.9055
18000.000000	87.950	145.4722
18250.000000	87.357	133.8308
18500.000000	85.415	123.9256
18750.000000	82.409	121.2558
19000.000000	79.508	125.9247
19250.000000	76.613	135.9019
19500.000000	73.861	148.3068
19750.000000	71.356	164.7282
