* Measurement data measured by REW V5.20.13
* Source: C:\Users\marcu\OneDrive\Desktop\audio_db\DUNU Kima Foam R.txt
* Format: Comma/Tab/Space delimited data
* Dated: Jul 4, 2023 9:04:08 AM
* REW Settings:
*  C-weighting compensation: Off
*  Target level: 75.0 dB
* Note: ; Measurement imported from C:\Users\marcu\OneDrive\Desktop\audio_db\DUNU Kima Foam R.txt Format: Comma/Tab/Space delimited data 54613 values loaded, 0 Hz to 20,000 Hz 
* Measurement: DUNU Kima Foam R
* Smoothing: None
* Frequency Step: 1/48 octave
* Start Frequency: 1.000 Hz
*
* Freq(Hz)	SPL(dB)	Phase(degrees)
1.000000	63.549	-59.7930
1.015000	63.376	-60.6181
1.030000	63.197	-61.4321
1.044000	63.023	-62.1810
1.060000	62.817	-63.0233
1.075000	62.616	-63.7987
1.090000	62.406	-64.5595
1.106000	62.174	-65.3741
1.120000	61.967	-66.1970
1.138000	61.694	-67.4135
1.150000	61.508	-68.3077
1.172000	61.160	-70.0817
1.180000	61.031	-70.7600
1.206000	60.600	-73.0381
1.220000	60.361	-74.2847
1.241000	59.993	-76.1365
1.250000	59.832	-76.9118
1.265000	59.558	-78.1633
1.280000	59.279	-79.3469
1.315000	58.600	-81.7316
1.320000	58.500	-82.0183
1.340000	58.093	-83.0007
1.360000	57.673	-83.6842
1.380000	57.239	-84.0216
1.400000	56.792	-83.9652
1.430000	56.095	-83.0387
1.450000	55.612	-81.7906
1.475000	54.976	-79.4133
1.500000	54.229	-75.9079
1.525000	53.373	-71.3677
1.550000	52.433	-65.9530
1.575000	51.436	-59.8243
1.600000	50.406	-53.1421
1.625000	49.369	-46.0666
1.650000	48.352	-38.7583
1.675000	47.378	-31.3777
1.700000	46.475	-24.0850
1.725000	45.667	-17.0408
1.750000	44.979	-10.4054
1.775000	44.438	-4.3393
1.800000	44.069	0.9972
1.825000	43.898	5.4437
1.850000	43.951	9.0426
1.875000	44.227	12.2123
1.900000	44.699	14.9968
1.925000	45.338	17.4216
1.950000	46.114	19.5118
1.975000	46.998	21.2928
2.000000	47.961	22.7899
2.030000	49.181	24.2471
2.060000	50.421	25.3756
2.090000	51.633	26.2190
2.120000	52.766	26.8209
2.140000	53.452	27.1097
2.180000	54.592	27.4754
2.200000	55.016	27.5765
2.240000	55.696	27.2641
2.270000	56.114	26.5264
2.300000	56.463	25.4251
2.330000	56.752	24.0215
2.360000	56.989	22.3766
2.400000	57.242	19.9139
2.430000	57.395	17.9441
2.470000	57.566	15.2701
2.500000	57.683	13.3083
2.540000	57.838	10.8670
2.580000	58.006	8.7146
2.620000	58.144	6.5740
2.650000	58.221	4.9335
2.690000	58.292	2.7125
2.720000	58.325	1.0307
2.760000	58.343	-1.2200
2.800000	58.338	-3.4648
2.850000	58.303	-6.2376
2.900000	58.245	-8.9432
2.950000	58.170	-11.5640
3.000000	58.061	-14.1967
3.040000	57.948	-16.3067
3.070000	57.850	-17.8776
3.110000	57.705	-19.9401
3.150000	57.543	-21.9465
3.200000	57.322	-24.3437
3.250000	57.084	-26.5795
3.300000	56.834	-28.6135
3.350000	56.554	-30.5320
3.400000	56.237	-32.3800
3.450000	55.897	-34.1063
3.500000	55.545	-35.6599
3.550000	55.196	-36.9899
3.600000	54.861	-38.0452
3.650000	54.554	-38.7748
3.700000	54.266	-39.1117
3.750000	53.961	-39.0386
3.820000	53.539	-38.4103
3.870000	53.265	-37.7058
3.950000	52.923	-36.3798
4.000000	52.797	-35.5645
4.060000	52.763	-34.6493
4.120000	52.846	-33.4467
4.180000	53.021	-32.0735
4.250000	53.310	-30.5184
4.310000	53.605	-29.4508
4.370000	53.918	-28.8356
4.440000	54.302	-28.8634
4.500000	54.694	-29.3722
4.550000	55.052	-30.0679
4.620000	55.572	-31.3648
4.680000	56.013	-32.6910
4.750000	56.486	-34.3782
4.820000	56.911	-36.2568
4.870000	57.205	-37.8164
4.940000	57.601	-40.2071
5.000000	57.921	-42.3587
5.080000	58.317	-45.2232
5.150000	58.628	-47.6034
5.220000	58.905	-50.0053
5.300000	59.187	-52.7809
5.380000	59.436	-55.4904
5.450000	59.631	-57.7257
5.520000	59.807	-59.7752
5.600000	59.974	-61.9800
5.700000	60.141	-64.5202
5.800000	60.284	-66.7439
5.900000	60.421	-68.5712
6.000000	60.531	-69.9974
6.080000	60.609	-70.8940
6.150000	60.683	-71.5305
6.220000	60.771	-72.0535
6.300000	60.888	-72.4640
6.400000	61.045	-72.6710
6.500000	61.223	-72.7133
6.600000	61.429	-72.7780
6.700000	61.671	-72.8225
6.800000	61.941	-72.8171
6.900000	62.222	-72.8817
7.000000	62.500	-73.1239
7.100000	62.791	-73.5115
7.200000	63.083	-74.0082
7.300000	63.360	-74.5937
7.400000	63.613	-75.2769
7.500000	63.852	-76.0793
7.620000	64.115	-77.0996
7.750000	64.362	-78.1631
7.880000	64.569	-79.2413
8.000000	64.735	-80.1824
8.120000	64.882	-80.9932
8.250000	65.014	-81.7550
8.380000	65.134	-82.4020
8.500000	65.245	-82.8837
8.620000	65.350	-83.2458
8.750000	65.465	-83.5756
8.850000	65.561	-83.8197
9.000000	65.711	-84.1244
9.120000	65.835	-84.3824
9.250000	65.973	-84.7295
9.380000	66.114	-85.1190
9.500000	66.241	-85.5287
9.620000	66.363	-86.0014
9.750000	66.490	-86.5757
9.880000	66.601	-87.1817
10.000000	66.681	-87.7640
10.150000	66.759	-88.5247
10.300000	66.823	-89.2736
10.440000	66.868	-89.9610
10.600000	66.910	-90.7326
10.750000	66.951	-91.4310
10.900000	66.990	-92.1138
11.060000	67.034	-92.8472
11.200000	67.074	-93.4893
11.380000	67.126	-94.3351
11.500000	67.162	-94.9182
11.720000	67.228	-96.0135
11.800000	67.252	-96.4200
12.060000	67.326	-97.7620
12.200000	67.364	-98.4791
12.410000	67.422	-99.5468
12.500000	67.454	-99.9953
12.650000	67.516	-100.7311
12.800000	67.584	-101.4567
13.150000	67.753	-103.1177
13.200000	67.778	-103.3538
13.400000	67.879	-104.2975
13.600000	67.979	-105.2346
13.800000	68.077	-106.1663
14.000000	68.173	-107.0709
14.300000	68.310	-108.3646
14.500000	68.398	-109.1654
14.750000	68.508	-110.1028
15.000000	68.619	-110.9753
15.250000	68.729	-111.8095
15.500000	68.839	-112.6240
15.750000	68.945	-113.4262
16.000000	69.047	-114.2163
16.250000	69.143	-114.9790
16.500000	69.235	-115.7082
16.750000	69.321	-116.3959
17.000000	69.401	-117.0537
17.250000	69.479	-117.6926
17.500000	69.553	-118.3279
17.750000	69.622	-118.9713
18.000000	69.687	-119.6211
18.250000	69.744	-120.2746
18.500000	69.796	-120.9207
18.750000	69.844	-121.5581
19.000000	69.890	-122.1857
19.250000	69.936	-122.8132
19.500000	69.982	-123.4489
19.750000	70.027	-124.0986
20.000000	70.073	-124.7647
20.299999	70.126	-125.5762
20.600000	70.178	-126.3894
20.900000	70.228	-127.1925
21.200001	70.280	-127.9799
21.400000	70.316	-128.4977
21.799999	70.388	-129.5194
22.000000	70.425	-130.0235
22.400000	70.498	-131.0132
22.700001	70.553	-131.7318
23.000000	70.607	-132.4251
23.299999	70.661	-133.0951
23.600000	70.714	-133.7449
24.000000	70.782	-134.5837
24.299999	70.831	-135.1912
24.700001	70.891	-135.9686
25.000000	70.932	-136.5271
25.400000	70.985	-137.2459
25.799999	71.032	-137.9465
26.200001	71.076	-138.6363
26.500000	71.106	-139.1471
26.900000	71.141	-139.8208
27.200001	71.166	-140.3241
27.600000	71.197	-140.9987
28.000000	71.226	-141.6802
28.500000	71.258	-142.5322
29.000000	71.288	-143.3715
29.500000	71.322	-144.2048
30.000000	71.356	-145.0457
30.400000	71.382	-145.7186
30.700001	71.400	-146.2137
31.100000	71.424	-146.8512
31.500000	71.448	-147.4616
32.000000	71.480	-148.1977
32.500000	71.511	-148.9128
33.000000	71.538	-149.6031
33.500000	71.565	-150.2656
34.000000	71.589	-150.9101
34.500000	71.610	-151.5487
35.000000	71.628	-152.1811
35.500000	71.640	-152.7998
36.000000	71.651	-153.4021
36.500000	71.661	-153.9938
37.000000	71.670	-154.5824
37.500000	71.679	-155.1708
38.200001	71.691	-155.9865
38.700001	71.698	-156.5565
39.500000	71.710	-157.4486
40.000000	71.718	-157.9967
40.599998	71.727	-158.6375
41.200001	71.736	-159.2522
41.799999	71.743	-159.8496
42.500000	71.750	-160.5370
43.099998	71.753	-161.1135
43.700001	71.755	-161.6754
44.400002	71.756	-162.3183
45.000000	71.756	-162.8596
45.500000	71.755	-163.3030
46.200001	71.755	-163.9161
46.799999	71.753	-164.4369
47.500000	71.751	-165.0338
48.200001	71.748	-165.6109
48.700001	71.744	-166.0104
49.400002	71.740	-166.5599
50.000000	71.737	-167.0279
50.799999	71.728	-167.6392
51.500000	71.721	-168.1590
52.200001	71.711	-168.6726
53.000000	71.700	-169.2427
53.799999	71.689	-169.7931
54.500000	71.681	-170.2740
55.200001	71.670	-170.7442
56.000000	71.658	-171.2589
57.000000	71.643	-171.8904
58.000000	71.625	-172.4840
59.000000	71.609	-173.0718
60.000000	71.588	-173.6689
60.799999	71.570	-174.1276
61.500000	71.555	-174.5301
62.200001	71.536	-174.9253
63.000000	71.515	-175.3467
64.000000	71.492	-175.8630
65.000000	71.467	-176.3843
66.000000	71.441	-176.8784
67.000000	71.415	-177.3621
68.000000	71.388	-177.8435
69.000000	71.358	-178.3006
70.000000	71.331	-178.7277
71.000000	71.305	-179.1624
72.000000	71.277	-179.5929
73.000000	71.249	179.9881
74.000000	71.218	179.5786
75.000000	71.187	179.1949
76.199997	71.151	178.7415
77.500000	71.111	178.2621
78.800003	71.072	177.8029
80.000000	71.037	177.3838
81.199997	71.000	176.9703
82.500000	70.960	176.5443
83.800003	70.919	176.1315
85.000000	70.880	175.7717
86.199997	70.844	175.4184
87.500000	70.802	175.0422
88.500000	70.771	174.7719
90.000000	70.725	174.3619
91.199997	70.686	174.0486
92.500000	70.647	173.7163
93.800003	70.605	173.3803
95.000000	70.567	173.0936
96.199997	70.530	172.8205
97.500000	70.488	172.5426
98.800003	70.447	172.2804
100.000000	70.410	172.0341
101.500000	70.361	171.7381
103.000000	70.315	171.4425
104.400002	70.271	171.1752
106.000000	70.223	170.8826
107.500000	70.176	170.6095
109.000000	70.130	170.3647
110.599998	70.082	170.1061
112.000000	70.040	169.8959
113.800003	69.985	169.6253
115.000000	69.947	169.4613
117.199997	69.883	169.1758
118.000000	69.859	169.0699
120.599998	69.780	168.7660
122.000000	69.738	168.6104
124.099998	69.677	168.3776
125.000000	69.651	168.2783
126.500000	69.611	168.1237
128.000000	69.572	167.9743
131.500000	69.489	167.6840
132.000000	69.477	167.6394
134.000000	69.431	167.4678
136.000000	69.382	167.3031
138.000000	69.334	167.1732
140.000000	69.288	167.0418
143.000000	69.216	166.8748
145.000000	69.171	166.7739
147.500000	69.114	166.6357
150.000000	69.057	166.5183
152.500000	69.002	166.4157
155.000000	68.948	166.3267
157.500000	68.893	166.2568
160.000000	68.837	166.2115
162.500000	68.775	166.1609
165.000000	68.710	166.0908
167.500000	68.645	166.0507
170.000000	68.582	166.0328
172.500000	68.522	166.0237
175.000000	68.460	166.0059
177.500000	68.398	165.9974
180.000000	68.338	165.9947
182.500000	68.280	166.0157
185.000000	68.227	166.0488
187.500000	68.170	166.0666
190.000000	68.111	166.0948
192.500000	68.057	166.1223
195.000000	68.003	166.1561
197.500000	67.950	166.2114
200.000000	67.899	166.2755
203.000000	67.841	166.3463
206.000000	67.787	166.4262
209.000000	67.735	166.5031
212.000000	67.682	166.5928
214.000000	67.649	166.6630
218.000000	67.583	166.8010
220.000000	67.551	166.8763
224.000000	67.489	167.0252
227.000000	67.441	167.1342
230.000000	67.395	167.2539
233.000000	67.350	167.3854
236.000000	67.305	167.5314
240.000000	67.246	167.6942
243.000000	67.204	167.8122
247.000000	67.149	168.0014
250.000000	67.109	168.1483
254.000000	67.056	168.3451
258.000000	67.005	168.5499
262.000000	66.960	168.7627
265.000000	66.927	168.9085
269.000000	66.881	169.1275
272.000000	66.846	169.2966
276.000000	66.800	169.5450
280.000000	66.757	169.7700
285.000000	66.700	170.0320
290.000000	66.650	170.2978
295.000000	66.604	170.5851
300.000000	66.563	170.9257
304.000000	66.528	171.1752
307.000000	66.500	171.3415
311.000000	66.463	171.5824
315.000000	66.432	171.8322
320.000000	66.393	172.1456
325.000000	66.354	172.4696
330.000000	66.316	172.7786
335.000000	66.282	173.0976
340.000000	66.246	173.4136
345.000000	66.211	173.7190
350.000000	66.178	174.0504
355.000000	66.147	174.3522
360.000000	66.117	174.6857
365.000000	66.087	175.0012
370.000000	66.057	175.3154
375.000000	66.031	175.6313
382.000000	65.995	176.0590
387.000000	65.967	176.4009
395.000000	65.927	176.9059
400.000000	65.901	177.2252
406.000000	65.878	177.6089
412.000000	65.855	177.9731
418.000000	65.830	178.3621
425.000000	65.802	178.8219
431.000000	65.782	179.1929
437.000000	65.762	179.5552
444.000000	65.737	-179.9744
450.000000	65.715	-179.5914
455.000000	65.702	-179.2912
462.000000	65.685	-178.8512
468.000000	65.666	-178.4812
475.000000	65.644	-178.0206
482.000000	65.626	-177.5716
487.000000	65.615	-177.2505
494.000000	65.599	-176.8046
500.000000	65.586	-176.4175
508.000000	65.571	-175.9163
515.000000	65.561	-175.4587
522.000000	65.552	-175.0085
530.000000	65.542	-174.5146
538.000000	65.531	-173.9780
545.000000	65.527	-173.5325
552.000000	65.520	-173.1000
560.000000	65.513	-172.5552
570.000000	65.502	-171.9009
580.000000	65.503	-171.2675
590.000000	65.500	-170.6214
600.000000	65.503	-169.9639
608.000000	65.504	-169.4625
615.000000	65.505	-168.9956
622.000000	65.506	-168.5170
630.000000	65.507	-167.9791
640.000000	65.520	-167.3206
650.000000	65.535	-166.6647
660.000000	65.536	-166.0642
670.000000	65.557	-165.3555
680.000000	65.574	-164.6811
690.000000	65.595	-164.0459
700.000000	65.611	-163.3641
710.000000	65.631	-162.6697
720.000000	65.656	-161.9951
730.000000	65.683	-161.3402
740.000000	65.711	-160.6618
750.000000	65.741	-159.9801
762.000000	65.782	-159.1750
775.000000	65.827	-158.2942
788.000000	65.878	-157.4224
800.000000	65.928	-156.6223
812.000000	65.976	-155.8112
825.000000	66.032	-154.9540
838.000000	66.092	-154.1038
850.000000	66.151	-153.3306
862.000000	66.213	-152.5535
875.000000	66.286	-151.7292
885.000000	66.345	-151.1092
900.000000	66.441	-150.2069
912.000000	66.520	-149.5177
925.000000	66.612	-148.7904
938.000000	66.708	-148.0821
950.000000	66.801	-147.4520
962.000000	66.896	-146.8492
975.000000	67.002	-146.2325
988.000000	67.113	-145.6634
1000.000000	67.219	-145.1664
1015.000000	67.362	-144.5600
1030.000000	67.511	-144.0280
1044.000000	67.650	-143.5852
1060.000000	67.810	-143.1126
1075.000000	67.959	-142.7155
1090.000000	68.108	-142.3761
1106.000000	68.265	-142.0455
1120.000000	68.398	-141.7991
1138.000000	68.570	-141.5405
1150.000000	68.680	-141.3863
1172.000000	68.878	-141.1749
1180.000000	68.949	-141.1145
1206.000000	69.168	-140.9520
1220.000000	69.281	-140.8968
1241.000000	69.440	-140.8215
1250.000000	69.503	-140.7859
1265.000000	69.592	-140.7450
1280.000000	69.668	-140.7146
1315.000000	69.843	-140.5087
1320.000000	69.871	-140.4656
1340.000000	69.977	-140.2973
1360.000000	70.084	-140.2141
1380.000000	70.194	-140.1666
1400.000000	70.300	-140.1275
1430.000000	70.455	-140.0903
1450.000000	70.556	-140.0807
1475.000000	70.682	-140.0861
1500.000000	70.806	-140.1098
1525.000000	70.928	-140.1304
1550.000000	71.053	-140.1672
1575.000000	71.180	-140.2332
1600.000000	71.312	-140.3104
1625.000000	71.468	-140.4129
1650.000000	71.630	-140.5343
1675.000000	71.794	-140.6804
1700.000000	71.958	-140.8561
1725.000000	72.122	-141.0758
1750.000000	72.283	-141.3182
1775.000000	72.447	-141.5892
1800.000000	72.609	-141.8947
1825.000000	72.769	-142.2431
1850.000000	72.928	-142.6270
1875.000000	73.086	-143.0529
1900.000000	73.242	-143.5188
1925.000000	73.395	-144.0261
1950.000000	73.547	-144.5728
1975.000000	73.695	-145.1662
2000.000000	73.837	-145.8020
2030.000000	74.001	-146.6217
2060.000000	74.154	-147.5092
2090.000000	74.301	-148.4562
2120.000000	74.441	-149.4610
2140.000000	74.529	-150.1672
2180.000000	74.692	-151.6443
2200.000000	74.767	-152.4159
2240.000000	74.904	-154.0187
2270.000000	74.994	-155.2638
2300.000000	75.071	-156.5453
2330.000000	75.136	-157.8575
2360.000000	75.189	-159.1806
2400.000000	75.243	-160.9461
2430.000000	75.268	-162.2631
2470.000000	75.282	-164.0042
2500.000000	75.281	-165.2854
2540.000000	75.263	-166.9480
2580.000000	75.228	-168.5407
2620.000000	75.179	-170.0543
2650.000000	75.134	-171.1321
2690.000000	75.066	-172.4949
2720.000000	75.008	-173.4540
2760.000000	74.926	-174.6485
2800.000000	74.839	-175.7462
2850.000000	74.726	-176.9953
2900.000000	74.609	-178.1067
2950.000000	74.494	-179.0952
3000.000000	74.380	-179.9676
3040.000000	74.293	179.4118
3070.000000	74.230	178.9843
3110.000000	74.147	178.4613
3150.000000	74.068	177.9892
3200.000000	73.976	177.4669
3250.000000	73.889	177.0036
3300.000000	73.813	176.5928
3350.000000	73.743	176.2126
3400.000000	73.680	175.8825
3450.000000	73.625	175.5690
3500.000000	73.578	175.2767
3550.000000	73.539	175.0016
3600.000000	73.507	174.7294
3650.000000	73.482	174.4570
3700.000000	73.463	174.1803
3750.000000	73.452	173.8921
3820.000000	73.445	173.4641
3870.000000	73.447	173.1287
3950.000000	73.461	172.5324
4000.000000	73.474	172.1118
4060.000000	73.491	171.5661
4120.000000	73.509	170.9564
4180.000000	73.532	170.2811
4250.000000	73.556	169.3910
4310.000000	73.578	168.5422
4370.000000	73.595	167.6118
4440.000000	73.608	166.4199
4500.000000	73.611	165.3105
4550.000000	73.607	164.3291
4620.000000	73.587	162.8712
4680.000000	73.554	161.5524
4750.000000	73.495	159.9611
4820.000000	73.414	158.3237
4870.000000	73.340	157.1465
4940.000000	73.213	155.5067
5000.000000	73.079	154.1239
5080.000000	72.857	152.3650
5150.000000	72.634	150.9161
5220.000000	72.388	149.5829
5300.000000	72.081	148.2253
5380.000000	71.754	147.0630
5450.000000	71.454	146.2159
5520.000000	71.145	145.5396
5600.000000	70.782	144.9745
5700.000000	70.321	144.5615
5800.000000	69.860	144.4780
5900.000000	69.407	144.6920
6000.000000	68.966	145.1909
6080.000000	68.623	145.7867
6150.000000	68.339	146.4405
6220.000000	68.070	147.2053
6300.000000	67.794	148.1591
6400.000000	67.525	149.3869
6500.000000	67.286	150.7067
6600.000000	67.063	152.1590
6700.000000	66.863	153.7113
6800.000000	66.689	155.3306
6900.000000	66.541	157.0314
7000.000000	66.419	158.7985
7100.000000	66.331	160.5754
7200.000000	66.278	162.2942
7300.000000	66.255	163.9325
7400.000000	66.253	165.4987
7500.000000	66.277	166.9608
7620.000000	66.335	168.5845
7750.000000	66.441	170.1022
7880.000000	66.585	171.3268
8000.000000	66.726	172.0807
8120.000000	66.811	172.4290
8250.000000	66.893	172.2881
8380.000000	66.967	171.5190
8500.000000	67.013	170.2208
8620.000000	67.010	168.3707
8750.000000	66.921	165.8108
8850.000000	66.775	163.5513
9000.000000	66.404	159.9824
9120.000000	65.972	157.2267
9250.000000	65.379	154.6351
9380.000000	64.682	152.6723
9500.000000	63.972	151.5292
9620.000000	63.223	151.0795
9750.000000	62.390	151.3387
9880.000000	61.559	152.3732
10000.000000	60.817	154.0016
10150.000000	59.963	156.7837
10300.000000	59.177	160.5208
10440.000000	58.508	164.8661
10600.000000	57.842	170.9113
10750.000000	57.369	177.5790
10900.000000	57.121	-174.8075
11060.000000	57.191	-166.3019
11200.000000	57.582	-159.3643
11380.000000	58.442	-152.5703
11500.000000	59.099	-149.9825
11720.000000	60.102	-148.5797
11800.000000	60.352	-148.6755
12060.000000	60.805	-148.9059
12200.000000	60.926	-148.3983
12410.000000	61.102	-146.7986
12500.000000	61.192	-145.8641
12650.000000	61.378	-144.1591
12800.000000	61.640	-142.3967
13150.000000	62.680	-139.3096
13200.000000	62.886	-139.1332
13400.000000	63.853	-139.6980
13600.000000	65.001	-143.3190
13800.000000	66.088	-151.7778
14000.000000	66.587	-165.5784
14300.000000	65.337	171.8363
14500.000000	63.491	162.1803
14750.000000	60.949	157.2151
15000.000000	58.639	157.3741
15250.000000	56.687	160.3981
15500.000000	55.073	164.9822
15750.000000	53.757	170.4754
16000.000000	52.751	176.4535
16250.000000	52.186	-177.3163
16500.000000	51.883	-170.9704
16750.000000	51.759	-164.7166
17000.000000	51.801	-158.6475
17250.000000	51.996	-153.0089
17500.000000	52.326	-148.0449
17750.000000	52.766	-143.9426
18000.000000	53.285	-140.9827
18250.000000	53.826	-139.6344
18500.000000	54.316	-140.5036
18750.000000	54.602	-143.8009
19000.000000	54.520	-150.2299
19250.000000	53.234	-158.2329
19500.000000	51.339	-155.4170
19750.000000	50.138	-154.6318
