* Measurement data measured by REW V5.20.13
* Source: C:\Users\marcu\OneDrive\Desktop\audio_db\GS Audio GT12X Foam L.txt
* Format: Comma/Tab/Space delimited data
* Dated: May 29, 2023 8:27:35 AM
* REW Settings:
*  C-weighting compensation: Off
*  Target level: 75.0 dB
* Note: ; Measurement imported from C:\Users\marcu\OneDrive\Desktop\audio_db\GS Audio GT12X Foam L.txt Format: Comma/Tab/Space delimited data 54613 values loaded, 0 Hz to 20,000 Hz 
* Measurement: GS Audio GT12X Foam L
* Smoothing: None
* Frequency Step: 1/48 octave
* Start Frequency: 1.000 Hz
*
* Freq(Hz)	SPL(dB)	Phase(degrees)
1.000000	53.517	133.4629
1.015000	53.372	132.9267
1.030000	53.224	132.4107
1.044000	53.081	131.9484
1.060000	52.913	131.4446
1.075000	52.751	130.9974
1.090000	52.583	130.5762
1.106000	52.399	130.1482
1.120000	52.233	129.7457
1.138000	52.011	129.1853
1.150000	51.858	128.7906
1.172000	51.570	128.0381
1.180000	51.462	127.7589
1.206000	51.104	126.8493
1.220000	50.906	126.3681
1.241000	50.603	125.6745
1.250000	50.471	125.3919
1.265000	50.248	124.9467
1.280000	50.023	124.5401
1.315000	49.488	123.7838
1.320000	49.411	123.7018
1.340000	49.100	123.4505
1.360000	48.788	123.3348
1.380000	48.474	123.3726
1.400000	48.160	123.5818
1.430000	47.690	124.2560
1.450000	47.378	124.9719
1.475000	46.987	126.2025
1.500000	46.555	127.8540
1.525000	46.083	129.8923
1.550000	45.581	132.2682
1.575000	45.060	134.9326
1.600000	44.531	137.8363
1.625000	44.005	140.9301
1.650000	43.492	144.1648
1.675000	43.004	147.4911
1.700000	42.551	150.8600
1.725000	42.144	154.2223
1.750000	41.794	157.5286
1.775000	41.511	160.7299
1.800000	41.307	163.7770
1.825000	41.192	166.6206
1.850000	41.177	169.3286
1.875000	41.258	172.1381
1.900000	41.426	175.0277
1.925000	41.668	177.9638
1.950000	41.972	-179.0868
1.975000	42.328	-176.1575
2.000000	42.724	-173.2819
2.030000	43.235	-169.9489
2.060000	43.768	-166.7988
2.090000	44.301	-163.8893
2.120000	44.817	-161.2781
2.140000	45.140	-159.7316
2.180000	45.711	-157.1817
2.200000	45.948	-156.2125
2.240000	46.389	-154.9092
2.270000	46.713	-154.4265
2.300000	47.029	-154.3058
2.330000	47.337	-154.4911
2.360000	47.636	-154.9263
2.400000	48.019	-155.7987
2.430000	48.293	-156.5994
2.470000	48.637	-157.7560
2.500000	48.880	-158.6175
2.540000	49.179	-159.6519
2.580000	49.448	-160.4770
2.620000	49.686	-161.3690
2.650000	49.844	-162.1185
2.690000	50.032	-163.2026
2.720000	50.158	-164.0643
2.760000	50.308	-165.2558
2.800000	50.442	-166.4706
2.850000	50.593	-167.9799
2.900000	50.732	-169.4285
2.950000	50.864	-170.7772
3.000000	50.972	-172.1171
3.040000	51.042	-173.1922
3.070000	51.085	-173.9944
3.110000	51.134	-175.0515
3.150000	51.176	-176.0859
3.200000	51.221	-177.3335
3.250000	51.264	-178.5141
3.300000	51.309	-179.6104
3.350000	51.348	179.3703
3.400000	51.376	178.4128
3.450000	51.397	177.5141
3.500000	51.415	176.6713
3.550000	51.435	175.8813
3.600000	51.462	175.1412
3.650000	51.500	174.4481
3.700000	51.548	173.8136
3.750000	51.600	173.2609
3.820000	51.681	172.5900
3.870000	51.746	172.1578
3.950000	51.869	171.4933
4.000000	51.960	171.0644
4.060000	52.086	170.5199
4.120000	52.230	170.0028
4.180000	52.390	169.5018
4.250000	52.592	168.9056
4.310000	52.775	168.3571
4.370000	52.963	167.7485
4.440000	53.190	166.9439
4.500000	53.397	166.1962
4.550000	53.577	165.5376
4.620000	53.833	164.5666
4.680000	54.054	163.6940
4.750000	54.306	162.6353
4.820000	54.553	161.5206
4.870000	54.730	160.6789
4.940000	54.976	159.4571
5.000000	55.185	158.3877
5.080000	55.455	156.9605
5.150000	55.681	155.7346
5.220000	55.900	154.4951
5.300000	56.141	153.0665
5.380000	56.374	151.6562
5.450000	56.571	150.4625
5.520000	56.762	149.3252
5.600000	56.971	148.0677
5.700000	57.221	146.5602
5.800000	57.463	145.1445
5.900000	57.701	143.8416
6.000000	57.933	142.6533
6.080000	58.115	141.7730
6.150000	58.273	141.0457
6.220000	58.433	140.3517
6.300000	58.617	139.6088
6.400000	58.848	138.7627
6.500000	59.080	137.9740
6.600000	59.313	137.2057
6.700000	59.551	136.4673
6.800000	59.790	135.7639
6.900000	60.029	135.0697
7.000000	60.265	134.3624
7.100000	60.500	133.6522
7.200000	60.734	132.9414
7.300000	60.961	132.2271
7.400000	61.182	131.5047
7.500000	61.397	130.7740
7.620000	61.647	129.9010
7.750000	61.904	128.9762
7.880000	62.149	128.0633
8.000000	62.365	127.2447
8.120000	62.572	126.4640
8.250000	62.785	125.6549
8.380000	62.990	124.8839
8.500000	63.174	124.2095
8.620000	63.352	123.5721
8.750000	63.540	122.9097
8.850000	63.683	122.4140
9.000000	63.893	121.7022
9.120000	64.058	121.1444
9.250000	64.234	120.5405
9.380000	64.407	119.9433
9.500000	64.563	119.3900
9.620000	64.718	118.8295
9.750000	64.882	118.2179
9.880000	65.035	117.6024
10.000000	65.158	117.0298
10.150000	65.297	116.3095
10.300000	65.424	115.5913
10.440000	65.532	114.9224
10.600000	65.648	114.1627
10.750000	65.755	113.4589
10.900000	65.857	112.7618
11.060000	65.964	112.0257
11.200000	66.054	111.3885
11.380000	66.167	110.5749
11.500000	66.241	110.0357
11.720000	66.375	109.0527
11.800000	66.422	108.6962
12.060000	66.575	107.5422
12.200000	66.654	106.9235
12.410000	66.773	105.9992
12.500000	66.829	105.6051
12.650000	66.931	104.9507
12.800000	67.036	104.3001
13.150000	67.276	102.7990
13.200000	67.310	102.5869
13.400000	67.444	101.7438
13.600000	67.575	100.9125
13.800000	67.703	100.0936
14.000000	67.830	99.2904
14.300000	68.016	98.1166
14.500000	68.137	97.3570
14.750000	68.285	96.4321
15.000000	68.431	95.5339
15.250000	68.574	94.6583
15.500000	68.713	93.8030
15.750000	68.849	92.9668
16.000000	68.982	92.1492
16.250000	69.115	91.3521
16.500000	69.248	90.5762
16.750000	69.375	89.8223
17.000000	69.499	89.0882
17.250000	69.618	88.3709
17.500000	69.734	87.6669
17.750000	69.847	86.9710
18.000000	69.956	86.2818
18.250000	70.061	85.5976
18.500000	70.162	84.9192
18.750000	70.259	84.2476
19.000000	70.352	83.5836
19.250000	70.443	82.9277
19.500000	70.531	82.2782
19.750000	70.616	81.6341
20.000000	70.701	80.9928
20.299999	70.800	80.2254
20.600000	70.898	79.4597
20.900000	70.992	78.6970
21.200001	71.084	77.9396
21.400000	71.144	77.4395
21.799999	71.259	76.4530
22.000000	71.316	75.9674
22.400000	71.427	75.0117
22.700001	71.509	74.3076
23.000000	71.588	73.6132
23.299999	71.666	72.9280
23.600000	71.742	72.2524
24.000000	71.840	71.3677
24.299999	71.910	70.7179
24.700001	72.000	69.8710
25.000000	72.065	69.2500
25.400000	72.148	68.4385
25.799999	72.229	67.6414
26.200001	72.304	66.8559
26.500000	72.358	66.2742
26.900000	72.426	65.5094
27.200001	72.474	64.9447
27.600000	72.535	64.2030
28.000000	72.593	63.4705
28.500000	72.664	62.5606
29.000000	72.730	61.6541
29.500000	72.791	60.7563
30.000000	72.849	59.8754
30.400000	72.892	59.1839
30.700001	72.925	58.6714
31.100000	72.968	57.9933
31.500000	73.010	57.3209
32.000000	73.057	56.4914
32.500000	73.102	55.6802
33.000000	73.144	54.8892
33.500000	73.185	54.1156
34.000000	73.222	53.3577
34.500000	73.256	52.6169
35.000000	73.288	51.8936
35.500000	73.320	51.1827
36.000000	73.348	50.4773
36.500000	73.374	49.7756
37.000000	73.398	49.0823
37.500000	73.419	48.4020
38.200001	73.447	47.4696
38.700001	73.466	46.8116
39.500000	73.493	45.7699
40.000000	73.508	45.1315
40.599998	73.527	44.3833
41.200001	73.545	43.6518
41.799999	73.562	42.9308
42.500000	73.579	42.1007
43.099998	73.593	41.4036
43.700001	73.604	40.7232
44.400002	73.616	39.9469
45.000000	73.626	39.2922
45.500000	73.633	38.7545
46.200001	73.643	38.0169
46.799999	73.650	37.3967
47.500000	73.658	36.6804
48.200001	73.664	35.9728
48.700001	73.668	35.4784
49.400002	73.672	34.8047
50.000000	73.676	34.2374
50.799999	73.681	33.4855
51.500000	73.683	32.8383
52.200001	73.685	32.2099
53.000000	73.687	31.5098
53.799999	73.689	30.8187
54.500000	73.690	30.2206
55.200001	73.689	29.6336
56.000000	73.689	28.9803
57.000000	73.687	28.1862
58.000000	73.686	27.4078
59.000000	73.682	26.6425
60.000000	73.677	25.8970
60.799999	73.673	25.3153
61.500000	73.669	24.8118
62.200001	73.665	24.3137
63.000000	73.660	23.7583
64.000000	73.652	23.0848
65.000000	73.645	22.4217
66.000000	73.635	21.7692
67.000000	73.624	21.1363
68.000000	73.614	20.5215
69.000000	73.603	19.9130
70.000000	73.592	19.3180
71.000000	73.581	18.7374
72.000000	73.570	18.1640
73.000000	73.558	17.6057
74.000000	73.547	17.0615
75.000000	73.535	16.5270
76.199997	73.520	15.8993
77.500000	73.503	15.2390
78.800003	73.486	14.5938
80.000000	73.471	14.0109
81.199997	73.454	13.4457
82.500000	73.438	12.8438
83.800003	73.420	12.2592
85.000000	73.404	11.7381
86.199997	73.389	11.2224
87.500000	73.370	10.6805
88.500000	73.357	10.2769
90.000000	73.336	9.6802
91.199997	73.319	9.2155
92.500000	73.300	8.7156
93.800003	73.280	8.2278
95.000000	73.261	7.7932
96.199997	73.244	7.3703
97.500000	73.225	6.9195
98.800003	73.204	6.4789
100.000000	73.186	6.0836
101.500000	73.162	5.6014
103.000000	73.139	5.1337
104.400002	73.119	4.7066
106.000000	73.094	4.2271
107.500000	73.071	3.7854
109.000000	73.046	3.3613
110.599998	73.021	2.9299
112.000000	72.999	2.5585
113.800003	72.971	2.0884
115.000000	72.950	1.7857
117.199997	72.916	1.2482
118.000000	72.904	1.0523
120.599998	72.861	0.4404
122.000000	72.838	0.1334
124.099998	72.806	-0.3179
125.000000	72.793	-0.5111
126.500000	72.774	-0.8291
128.000000	72.755	-1.1426
131.500000	72.713	-1.8263
132.000000	72.707	-1.9208
134.000000	72.682	-2.2966
136.000000	72.656	-2.6550
138.000000	72.632	-3.0026
140.000000	72.607	-3.3435
143.000000	72.570	-3.8305
145.000000	72.546	-4.1421
147.500000	72.515	-4.5179
150.000000	72.485	-4.8788
152.500000	72.453	-5.2213
155.000000	72.422	-5.5561
157.500000	72.392	-5.8763
160.000000	72.360	-6.1842
162.500000	72.321	-6.4774
165.000000	72.277	-6.7593
167.500000	72.233	-7.0308
170.000000	72.190	-7.2959
172.500000	72.148	-7.5538
175.000000	72.106	-7.7950
177.500000	72.066	-8.0290
180.000000	72.025	-8.2528
182.500000	71.985	-8.4684
185.000000	71.945	-8.6802
187.500000	71.904	-8.8810
190.000000	71.865	-9.0713
192.500000	71.826	-9.2567
195.000000	71.787	-9.4354
197.500000	71.749	-9.6097
200.000000	71.713	-9.7747
203.000000	71.674	-9.9654
206.000000	71.636	-10.1498
209.000000	71.599	-10.3252
212.000000	71.562	-10.4886
214.000000	71.539	-10.5906
218.000000	71.491	-10.7871
220.000000	71.466	-10.8806
224.000000	71.420	-11.0640
227.000000	71.386	-11.1986
230.000000	71.351	-11.3272
233.000000	71.316	-11.4422
236.000000	71.283	-11.5531
240.000000	71.240	-11.6933
243.000000	71.207	-11.7924
247.000000	71.164	-11.9177
250.000000	71.132	-12.0064
254.000000	71.093	-12.1179
258.000000	71.053	-12.2189
262.000000	71.014	-12.3136
265.000000	70.986	-12.3790
269.000000	70.948	-12.4528
272.000000	70.920	-12.5050
276.000000	70.883	-12.5752
280.000000	70.848	-12.6458
285.000000	70.803	-12.7233
290.000000	70.759	-12.7801
295.000000	70.716	-12.8318
300.000000	70.673	-12.8789
304.000000	70.641	-12.9084
307.000000	70.616	-12.9285
311.000000	70.584	-12.9541
315.000000	70.553	-12.9743
320.000000	70.512	-12.9859
325.000000	70.472	-12.9950
330.000000	70.434	-13.0057
335.000000	70.396	-13.0144
340.000000	70.358	-13.0131
345.000000	70.321	-13.0047
350.000000	70.286	-12.9936
355.000000	70.250	-12.9758
360.000000	70.215	-12.9555
365.000000	70.181	-12.9310
370.000000	70.147	-12.9057
375.000000	70.113	-12.8768
382.000000	70.068	-12.8321
387.000000	70.035	-12.8017
395.000000	69.982	-12.7371
400.000000	69.949	-12.6985
406.000000	69.910	-12.6461
412.000000	69.872	-12.5867
418.000000	69.835	-12.5192
425.000000	69.791	-12.4299
431.000000	69.754	-12.3511
437.000000	69.717	-12.2718
444.000000	69.674	-12.1589
450.000000	69.638	-12.0531
455.000000	69.609	-11.9658
462.000000	69.568	-11.8372
468.000000	69.534	-11.7193
475.000000	69.495	-11.5802
482.000000	69.456	-11.4301
487.000000	69.428	-11.3168
494.000000	69.391	-11.1537
500.000000	69.360	-11.0099
508.000000	69.322	-10.8217
515.000000	69.288	-10.6475
522.000000	69.256	-10.4618
530.000000	69.218	-10.2505
538.000000	69.184	-10.0329
545.000000	69.154	-9.8376
552.000000	69.124	-9.6334
560.000000	69.091	-9.3945
570.000000	69.050	-9.0873
580.000000	69.011	-8.7684
590.000000	68.973	-8.4375
600.000000	68.936	-8.1026
608.000000	68.908	-7.8247
615.000000	68.885	-7.5705
622.000000	68.862	-7.3166
630.000000	68.836	-7.0254
640.000000	68.807	-6.6503
650.000000	68.781	-6.2659
660.000000	68.756	-5.8644
670.000000	68.732	-5.4619
680.000000	68.710	-5.0479
690.000000	68.691	-4.6284
700.000000	68.672	-4.2051
710.000000	68.657	-3.7702
720.000000	68.644	-3.3277
730.000000	68.633	-2.8786
740.000000	68.623	-2.4275
750.000000	68.617	-1.9716
762.000000	68.612	-1.4079
775.000000	68.610	-0.7954
788.000000	68.612	-0.1776
800.000000	68.617	0.3945
812.000000	68.620	0.9661
825.000000	68.626	1.5850
838.000000	68.636	2.2061
850.000000	68.650	2.7694
862.000000	68.668	3.3341
875.000000	68.693	3.9237
885.000000	68.716	4.3724
900.000000	68.755	5.0334
912.000000	68.790	5.5432
925.000000	68.832	6.0754
938.000000	68.878	6.5837
950.000000	68.926	7.0264
962.000000	68.976	7.4444
975.000000	69.034	7.8695
988.000000	69.095	8.2614
1000.000000	69.155	8.5979
1015.000000	69.242	8.9770
1030.000000	69.335	9.3030
1044.000000	69.422	9.5720
1060.000000	69.522	9.8223
1075.000000	69.614	10.0098
1090.000000	69.706	10.1537
1106.000000	69.800	10.2646
1120.000000	69.882	10.3232
1138.000000	69.982	10.3501
1150.000000	70.046	10.3450
1172.000000	70.160	10.2909
1180.000000	70.198	10.2564
1206.000000	70.316	10.1046
1220.000000	70.376	9.9999
1241.000000	70.458	9.8222
1250.000000	70.485	9.7408
1265.000000	70.517	9.5925
1280.000000	70.539	9.4363
1315.000000	70.578	9.0603
1320.000000	70.583	9.0063
1340.000000	70.598	8.7879
1360.000000	70.609	8.5714
1380.000000	70.616	8.3584
1400.000000	70.620	8.1536
1430.000000	70.620	7.8487
1450.000000	70.618	7.6585
1475.000000	70.612	7.4318
1500.000000	70.604	7.2193
1525.000000	70.592	7.0272
1550.000000	70.578	6.8444
1575.000000	70.564	6.6685
1600.000000	70.556	6.5102
1625.000000	70.571	6.3579
1650.000000	70.593	6.2140
1675.000000	70.616	6.0773
1700.000000	70.639	5.9338
1725.000000	70.662	5.8008
1750.000000	70.684	5.6647
1775.000000	70.704	5.5339
1800.000000	70.724	5.3967
1825.000000	70.745	5.2455
1850.000000	70.768	5.0846
1875.000000	70.791	4.9187
1900.000000	70.814	4.7400
1925.000000	70.836	4.5495
1950.000000	70.857	4.3540
1975.000000	70.875	4.1473
2000.000000	70.890	3.9362
2030.000000	70.902	3.6674
2060.000000	70.910	3.3839
2090.000000	70.916	3.0868
2120.000000	70.919	2.7868
2140.000000	70.918	2.5838
2180.000000	70.913	2.1809
2200.000000	70.908	1.9842
2240.000000	70.894	1.6037
2270.000000	70.881	1.3312
2300.000000	70.866	1.0741
2330.000000	70.851	0.8338
2360.000000	70.833	0.6053
2400.000000	70.808	0.3363
2430.000000	70.790	0.1556
2470.000000	70.768	-0.0597
2500.000000	70.752	-0.2041
2540.000000	70.734	-0.3812
2580.000000	70.720	-0.5503
2620.000000	70.712	-0.7298
2650.000000	70.709	-0.8799
2690.000000	70.709	-1.1156
2720.000000	70.710	-1.3279
2760.000000	70.710	-1.6592
2800.000000	70.709	-2.0439
2850.000000	70.700	-2.6253
2900.000000	70.675	-3.3162
2950.000000	70.628	-4.0888
3000.000000	70.549	-4.8847
3040.000000	70.459	-5.4796
3070.000000	70.376	-5.8524
3110.000000	70.248	-6.2049
3150.000000	70.111	-6.3644
3200.000000	69.944	-6.3014
3250.000000	69.800	-6.0364
3300.000000	69.687	-5.6889
3350.000000	69.598	-5.3855
3400.000000	69.522	-5.2114
3450.000000	69.440	-5.1764
3500.000000	69.337	-5.2330
3550.000000	69.199	-5.2628
3600.000000	69.026	-5.1024
3650.000000	68.830	-4.6038
3700.000000	68.634	-3.6638
3750.000000	68.467	-2.3006
3820.000000	68.331	0.0961
3870.000000	68.314	1.9108
3950.000000	68.419	4.5462
4000.000000	68.544	5.8506
4060.000000	68.723	6.9690
4120.000000	68.915	7.5949
4180.000000	69.101	7.7461
4250.000000	69.280	7.3958
4310.000000	69.384	6.7335
4370.000000	69.427	5.8633
4440.000000	69.384	4.7720
4500.000000	69.262	3.9782
4550.000000	69.102	3.5622
4620.000000	68.795	3.5940
4680.000000	68.438	4.4210
4750.000000	67.829	8.8764
4820.000000	68.468	16.9815
4870.000000	69.038	17.3710
4940.000000	69.434	17.0723
5000.000000	69.628	16.1276
5080.000000	69.602	14.1399
5150.000000	69.342	13.5343
5220.000000	69.033	14.7485
5300.000000	68.809	18.1154
5380.000000	68.835	22.8699
5450.000000	69.111	28.1679
5520.000000	70.101	33.4111
5600.000000	71.263	33.6862
5700.000000	72.548	32.1093
5800.000000	73.713	26.4663
5900.000000	74.325	16.8533
6000.000000	74.256	6.5154
6080.000000	73.870	-0.3876
6150.000000	73.431	-5.0902
6220.000000	72.991	-8.8239
6300.000000	72.553	-12.8129
6400.000000	71.957	-18.8952
6500.000000	70.778	-24.9856
6600.000000	68.960	-24.9647
6700.000000	67.554	-17.4841
6800.000000	67.105	-8.7150
6900.000000	67.194	-2.0026
7000.000000	67.471	2.7429
7100.000000	67.827	6.1684
7200.000000	68.227	8.5697
7300.000000	68.656	10.1005
7400.000000	69.101	10.8151
7500.000000	69.549	10.6945
7620.000000	70.054	9.4154
7750.000000	70.516	6.7062
7880.000000	70.815	2.7989
8000.000000	70.875	-1.4749
8120.000000	70.652	-5.8609
8250.000000	70.169	-10.0931
8380.000000	69.515	-13.2943
8500.000000	68.821	-15.0734
8620.000000	68.104	-15.6773
8750.000000	67.367	-15.0987
8850.000000	66.875	-13.9555
9000.000000	66.314	-11.7127
9120.000000	66.003	-10.0575
9250.000000	65.729	-8.7414
9380.000000	65.448	-7.7533
9500.000000	65.167	-6.8390
9620.000000	64.876	-5.7255
9750.000000	64.565	-4.1930
9880.000000	64.279	-2.2195
10000.000000	64.095	0.0923
10150.000000	64.079	3.1549
10300.000000	64.222	5.7118
10440.000000	64.429	7.5829
10600.000000	64.736	9.2074
10750.000000	65.111	10.2807
10900.000000	65.599	10.4611
11060.000000	66.181	9.0735
11200.000000	66.668	6.2669
11380.000000	67.114	0.3620
11500.000000	67.209	-4.6810
11720.000000	66.838	-14.7769
11800.000000	66.519	-18.2352
12060.000000	64.944	-26.7523
12200.000000	63.863	-28.9324
12410.000000	62.207	-28.5816
12500.000000	61.556	-27.2595
12650.000000	60.634	-24.0111
12800.000000	59.974	-20.2874
13150.000000	59.219	-14.3460
13200.000000	59.144	-14.0011
13400.000000	58.791	-13.7096
13600.000000	58.277	-14.6082
13800.000000	57.550	-15.8648
14000.000000	56.639	-16.7476
14300.000000	55.027	-16.6706
14500.000000	53.857	-15.3916
14750.000000	52.363	-12.2446
15000.000000	50.959	-7.3953
15250.000000	49.572	-1.1600
15500.000000	48.497	7.9906
15750.000000	48.023	17.2998
16000.000000	47.969	23.9537
16250.000000	48.060	30.2362
16500.000000	47.944	37.1880
16750.000000	49.335	52.8814
17000.000000	52.124	51.2581
17250.000000	53.284	46.9516
17500.000000	54.207	41.3118
17750.000000	54.700	33.6042
18000.000000	54.763	24.3044
18250.000000	54.078	15.1436
18500.000000	52.923	9.7309
18750.000000	51.733	7.0173
19000.000000	50.626	5.2723
19250.000000	49.499	2.9904
19500.000000	48.051	0.2823
19750.000000	46.217	-0.5898
