* Measurement data measured by REW V5.20.13
* Source: C:\Users\marcu\OneDrive\Desktop\Fix\ n.Gold f.Black Foam L.txt
* Format: Comma/Tab/Space delimited data
* Dated: Jul 25, 2023 9:51:54 PM
* REW Settings:
*  C-weighting compensation: Off
*  Target level: 75.0 dB
* Note: ; Measurement imported from C:\Users\marcu\OneDrive\Desktop\Fix\ n.Gold f.Black Foam L.txt Format: Comma/Tab/Space delimited data 54613 values loaded, 0 Hz to 20,000 Hz 
* Measurement:  n.Gold f.Black Foam L
* Smoothing: None
* Frequency Step: 1/48 octave
* Start Frequency: 1.000 Hz
*
* Freq(Hz)	SPL(dB)	Phase(degrees)
1.000000	76.239	-127.5287
1.015000	76.267	-129.3155
1.030000	76.294	-131.0923
1.044000	76.320	-132.7411
1.060000	76.349	-134.6138
1.075000	76.377	-136.3575
1.090000	76.404	-138.0891
1.106000	76.432	-139.9230
1.120000	76.458	-141.5202
1.138000	76.491	-143.5647
1.150000	76.514	-144.9217
1.172000	76.557	-147.3969
1.180000	76.573	-148.2928
1.206000	76.625	-151.1885
1.220000	76.653	-152.7373
1.241000	76.696	-155.0465
1.250000	76.714	-156.0308
1.265000	76.745	-157.6640
1.280000	76.775	-159.2880
1.315000	76.844	-163.0401
1.320000	76.854	-163.5718
1.340000	76.892	-165.6871
1.360000	76.929	-167.7840
1.380000	76.966	-169.8621
1.400000	77.000	-171.9207
1.430000	77.049	-174.9711
1.450000	77.079	-176.9789
1.475000	77.114	-179.4593
1.500000	77.148	178.0888
1.525000	77.181	175.6647
1.550000	77.214	173.2686
1.575000	77.245	170.9009
1.600000	77.275	168.5619
1.625000	77.303	166.2519
1.650000	77.328	163.9713
1.675000	77.352	161.7202
1.700000	77.372	159.4991
1.725000	77.390	157.3083
1.750000	77.404	155.1481
1.775000	77.414	153.0188
1.800000	77.420	150.9207
1.825000	77.422	148.8541
1.850000	77.420	146.8171
1.875000	77.415	144.8052
1.900000	77.408	142.8193
1.925000	77.398	140.8610
1.950000	77.385	138.9316
1.975000	77.368	137.0323
2.000000	77.348	135.1646
2.030000	77.320	132.9669
2.060000	77.286	130.8191
2.090000	77.247	128.7233
2.120000	77.202	126.6820
2.140000	77.168	125.3525
2.180000	77.093	122.7722
2.200000	77.051	121.5225
2.240000	76.958	119.0725
2.270000	76.880	117.2753
2.300000	76.795	115.5201
2.330000	76.705	113.8138
2.360000	76.609	112.1633
2.400000	76.473	110.0610
2.430000	76.366	108.5671
2.470000	76.217	106.6985
2.500000	76.100	105.3984
2.540000	75.940	103.8131
2.580000	75.774	102.4049
2.620000	75.587	101.1272
2.650000	75.435	100.2516
2.690000	75.223	99.2030
2.720000	75.058	98.5114
2.760000	74.838	97.7241
2.800000	74.623	97.1005
2.850000	74.369	96.5672
2.900000	74.145	96.3266
2.950000	73.957	96.4163
3.000000	73.776	96.9664
3.040000	73.636	97.6942
3.070000	73.538	98.3699
3.110000	73.421	99.3979
3.150000	73.323	100.5180
3.200000	73.236	101.9598
3.250000	73.200	103.3425
3.300000	73.224	104.5551
3.350000	73.318	105.7611
3.400000	73.477	107.0742
3.450000	73.685	108.4158
3.500000	73.928	109.7068
3.550000	74.193	110.8685
3.600000	74.464	111.8220
3.650000	74.727	112.4885
3.700000	74.985	112.8253
3.750000	75.267	112.9005
3.820000	75.686	112.6460
3.870000	75.990	112.2609
3.950000	76.460	111.4018
4.000000	76.729	110.7746
4.060000	77.017	109.9588
4.120000	77.283	108.9376
4.180000	77.532	107.7454
4.250000	77.798	106.2245
4.310000	78.004	104.8831
4.370000	78.190	103.5748
4.440000	78.379	102.1162
4.500000	78.514	100.8224
4.550000	78.611	99.7298
4.620000	78.725	98.2190
4.680000	78.808	96.9789
4.750000	78.892	95.6448
4.820000	78.959	94.4369
4.870000	78.992	93.6188
4.940000	79.022	92.5463
5.000000	79.039	91.7049
5.080000	79.059	90.7120
5.150000	79.080	89.9813
5.220000	79.095	89.3976
5.300000	79.105	88.8818
5.380000	79.118	88.4841
5.450000	79.139	88.1975
5.520000	79.175	87.9464
5.600000	79.229	87.7784
5.700000	79.313	87.6888
5.800000	79.413	87.6042
5.900000	79.530	87.4066
6.000000	79.673	87.1662
6.080000	79.797	86.9360
6.150000	79.907	86.6849
6.220000	80.012	86.3692
6.300000	80.129	85.9154
6.400000	80.278	85.2339
6.500000	80.420	84.4679
6.600000	80.542	83.6621
6.700000	80.645	82.7861
6.800000	80.732	81.8474
6.900000	80.803	80.9162
7.000000	80.857	80.0501
7.100000	80.891	79.2059
7.200000	80.910	78.4024
7.300000	80.922	77.6804
7.400000	80.927	77.0664
7.500000	80.922	76.5410
7.620000	80.912	76.0099
7.750000	80.912	75.5466
7.880000	80.917	75.2285
8.000000	80.929	74.9919
8.120000	80.954	74.7474
8.250000	80.996	74.5156
8.380000	81.046	74.2582
8.500000	81.095	73.9447
8.620000	81.151	73.5793
8.750000	81.210	73.1285
8.850000	81.250	72.7384
9.000000	81.304	72.0744
9.120000	81.340	71.5170
9.250000	81.368	70.9123
9.380000	81.386	70.2908
9.500000	81.396	69.7364
9.620000	81.402	69.2192
9.750000	81.403	68.6869
9.880000	81.396	68.1877
10.000000	81.379	67.7642
10.150000	81.348	67.2750
10.300000	81.317	66.7991
10.440000	81.287	66.3723
10.600000	81.254	65.8825
10.750000	81.228	65.4003
10.900000	81.205	64.9033
11.060000	81.181	64.3497
11.200000	81.159	63.8440
11.380000	81.130	63.1812
11.500000	81.110	62.7329
11.720000	81.070	61.9051
11.800000	81.055	61.6063
12.060000	81.007	60.6377
12.200000	80.979	60.1187
12.410000	80.942	59.3427
12.500000	80.933	59.0096
12.650000	80.929	58.4532
12.800000	80.930	57.8997
13.150000	80.931	56.6270
13.200000	80.931	56.4503
13.400000	80.930	55.7571
13.600000	80.929	55.0896
13.800000	80.930	54.4515
14.000000	80.934	53.8296
14.300000	80.946	52.9167
14.500000	80.956	52.3024
14.750000	80.969	51.5236
15.000000	80.980	50.7332
15.250000	80.984	49.9492
15.500000	80.984	49.1920
15.750000	80.981	48.4706
16.000000	80.980	47.7911
16.250000	80.987	47.1347
16.500000	81.000	46.4885
16.750000	81.014	45.8319
17.000000	81.027	45.1581
17.250000	81.036	44.4716
17.500000	81.040	43.7804
17.750000	81.040	43.1018
18.000000	81.037	42.4398
18.250000	81.034	41.7983
18.500000	81.031	41.1689
18.750000	81.029	40.5443
19.000000	81.028	39.9181
19.250000	81.028	39.2859
19.500000	81.028	38.6498
19.750000	81.027	38.0112
20.000000	81.029	37.3725
20.299999	81.032	36.6038
20.600000	81.036	35.8310
20.900000	81.041	35.0547
21.200001	81.045	34.2807
21.400000	81.046	33.7731
21.799999	81.049	32.7882
22.000000	81.051	32.3129
22.400000	81.059	31.3898
22.700001	81.068	30.7072
23.000000	81.078	30.0221
23.299999	81.087	29.3359
23.600000	81.093	28.6577
24.000000	81.098	27.7828
24.299999	81.101	27.1549
24.700001	81.106	26.3461
25.000000	81.112	25.7464
25.400000	81.119	24.9398
25.799999	81.123	24.1232
26.200001	81.123	23.3100
26.500000	81.120	22.7120
26.900000	81.115	21.9354
27.200001	81.111	21.3654
27.600000	81.108	20.6113
28.000000	81.107	19.8489
28.500000	81.105	18.8719
29.000000	81.101	17.8826
29.500000	81.092	16.9147
30.000000	81.083	15.9883
30.400000	81.080	15.2663
30.700001	81.080	14.7258
31.100000	81.080	14.0002
31.500000	81.078	13.2758
32.000000	81.074	12.3903
32.500000	81.070	11.5342
33.000000	81.066	10.6938
33.500000	81.061	9.8581
34.000000	81.054	9.0308
34.500000	81.046	8.2167
35.000000	81.036	7.4111
35.500000	81.026	6.6096
36.000000	81.015	5.8139
36.500000	81.003	5.0233
37.000000	80.991	4.2351
37.500000	80.977	3.4541
38.200001	80.958	2.3899
38.700001	80.948	1.6421
39.500000	80.932	0.4268
40.000000	80.920	-0.3282
40.599998	80.902	-1.1970
41.200001	80.888	-2.0339
41.799999	80.876	-2.8685
42.500000	80.857	-3.8400
43.099998	80.840	-4.6529
43.700001	80.823	-5.4532
44.400002	80.801	-6.3871
45.000000	80.782	-7.1857
45.500000	80.763	-7.8422
46.200001	80.735	-8.7386
46.799999	80.712	-9.4881
47.500000	80.686	-10.3567
48.200001	80.658	-11.2213
48.700001	80.636	-11.8223
49.400002	80.606	-12.6296
50.000000	80.582	-13.3080
50.799999	80.549	-14.2161
51.500000	80.516	-14.9888
52.200001	80.483	-15.7231
53.000000	80.447	-16.5442
53.799999	80.410	-17.3571
54.500000	80.374	-18.0449
55.200001	80.339	-18.7110
56.000000	80.298	-19.4427
57.000000	80.248	-20.3196
58.000000	80.198	-21.1897
59.000000	80.143	-22.0090
60.000000	80.091	-22.7814
60.799999	80.051	-23.3837
61.500000	80.014	-23.8898
62.200001	79.978	-24.3824
63.000000	79.935	-24.9351
64.000000	79.878	-25.5834
65.000000	79.821	-26.1768
66.000000	79.767	-26.7573
67.000000	79.711	-27.3423
68.000000	79.650	-27.9029
69.000000	79.590	-28.4194
70.000000	79.534	-28.9235
71.000000	79.476	-29.4233
72.000000	79.417	-29.8978
73.000000	79.358	-30.3397
74.000000	79.301	-30.7634
75.000000	79.245	-31.1914
76.199997	79.172	-31.7008
77.500000	79.090	-32.1857
78.800003	79.013	-32.6356
80.000000	78.946	-33.0521
81.199997	78.876	-33.4574
82.500000	78.802	-33.8729
83.800003	78.729	-34.2765
85.000000	78.661	-34.6379
86.199997	78.591	-34.9728
87.500000	78.517	-35.3259
88.500000	78.459	-35.5909
90.000000	78.375	-35.9644
91.199997	78.309	-36.2664
92.500000	78.237	-36.5908
93.800003	78.165	-36.8914
95.000000	78.101	-37.1470
96.199997	78.037	-37.3944
97.500000	77.967	-37.6492
98.800003	77.897	-37.8984
100.000000	77.834	-38.1202
101.500000	77.754	-38.4047
103.000000	77.672	-38.6676
104.400002	77.595	-38.8983
106.000000	77.508	-39.1266
107.500000	77.431	-39.3408
109.000000	77.354	-39.5657
110.599998	77.272	-39.7982
112.000000	77.201	-39.9741
113.800003	77.113	-40.1853
115.000000	77.053	-40.3167
117.199997	76.943	-40.5603
118.000000	76.904	-40.6519
120.599998	76.777	-40.9676
122.000000	76.712	-41.1289
124.099998	76.614	-41.3442
125.000000	76.573	-41.4201
126.500000	76.506	-41.5313
128.000000	76.442	-41.6343
131.500000	76.293	-41.8629
132.000000	76.273	-41.8901
134.000000	76.194	-41.9960
136.000000	76.113	-42.1024
138.000000	76.031	-42.2045
140.000000	75.949	-42.3334
143.000000	75.833	-42.5093
145.000000	75.762	-42.5997
147.500000	75.670	-42.7153
150.000000	75.575	-42.8218
152.500000	75.482	-42.9125
155.000000	75.395	-42.9519
157.500000	75.308	-42.9538
160.000000	75.215	-42.9822
162.500000	75.111	-43.0352
165.000000	75.009	-43.0599
167.500000	74.915	-43.0696
170.000000	74.821	-43.0778
172.500000	74.727	-43.1016
175.000000	74.634	-43.1167
177.500000	74.543	-43.1205
180.000000	74.453	-43.1223
182.500000	74.366	-43.1058
185.000000	74.280	-43.0720
187.500000	74.195	-43.0334
190.000000	74.106	-42.9888
192.500000	74.019	-42.9414
195.000000	73.935	-42.8962
197.500000	73.856	-42.8362
200.000000	73.779	-42.7688
203.000000	73.685	-42.6907
206.000000	73.591	-42.6074
209.000000	73.505	-42.5328
212.000000	73.426	-42.4575
214.000000	73.373	-42.3944
218.000000	73.263	-42.2534
220.000000	73.208	-42.1771
224.000000	73.100	-42.0334
227.000000	73.022	-41.9250
230.000000	72.946	-41.7971
233.000000	72.868	-41.6599
236.000000	72.790	-41.5269
240.000000	72.692	-41.3275
243.000000	72.621	-41.1786
247.000000	72.526	-40.9986
250.000000	72.458	-40.8629
254.000000	72.369	-40.6785
258.000000	72.282	-40.4857
262.000000	72.201	-40.2676
265.000000	72.139	-40.0945
269.000000	72.055	-39.8852
272.000000	71.994	-39.7394
276.000000	71.919	-39.5171
280.000000	71.840	-39.2737
285.000000	71.741	-38.9901
290.000000	71.647	-38.6929
295.000000	71.557	-38.3670
300.000000	71.466	-38.0515
304.000000	71.395	-37.8105
307.000000	71.344	-37.6302
311.000000	71.276	-37.3788
315.000000	71.209	-37.1238
320.000000	71.128	-36.7975
325.000000	71.050	-36.4760
330.000000	70.976	-36.1782
335.000000	70.896	-35.8473
340.000000	70.822	-35.5002
345.000000	70.754	-35.1675
350.000000	70.684	-34.8275
355.000000	70.611	-34.4742
360.000000	70.542	-34.1290
365.000000	70.478	-33.7889
370.000000	70.413	-33.4410
375.000000	70.349	-33.1094
382.000000	70.268	-32.6202
387.000000	70.210	-32.2635
395.000000	70.117	-31.7277
400.000000	70.060	-31.3833
406.000000	69.998	-30.9434
412.000000	69.938	-30.5358
418.000000	69.870	-30.1473
425.000000	69.797	-29.6401
431.000000	69.738	-29.1967
437.000000	69.680	-28.7992
444.000000	69.614	-28.3065
450.000000	69.560	-27.8813
455.000000	69.514	-27.5437
462.000000	69.448	-27.0750
468.000000	69.398	-26.6423
475.000000	69.348	-26.1252
482.000000	69.291	-25.6278
487.000000	69.248	-25.3101
494.000000	69.197	-24.8313
500.000000	69.156	-24.3765
508.000000	69.101	-23.7966
515.000000	69.053	-23.3191
522.000000	69.005	-22.8022
530.000000	68.948	-22.2239
538.000000	68.900	-21.6571
545.000000	68.861	-21.1428
552.000000	68.816	-20.6212
560.000000	68.765	-20.0376
570.000000	68.720	-19.3065
580.000000	68.672	-18.6057
590.000000	68.625	-17.8965
600.000000	68.583	-17.1651
608.000000	68.555	-16.5673
615.000000	68.527	-16.0498
622.000000	68.495	-15.5570
630.000000	68.462	-15.0028
640.000000	68.429	-14.2709
650.000000	68.399	-13.5010
660.000000	68.366	-12.7837
670.000000	68.337	-12.0786
680.000000	68.311	-11.3719
690.000000	68.287	-10.6334
700.000000	68.262	-9.8839
710.000000	68.237	-9.1439
720.000000	68.217	-8.3585
730.000000	68.206	-7.5089
740.000000	68.207	-6.6821
750.000000	68.213	-5.9329
762.000000	68.223	-5.1006
775.000000	68.231	-4.2115
788.000000	68.242	-3.3206
800.000000	68.247	-2.4909
812.000000	68.253	-1.7039
825.000000	68.260	-0.8467
838.000000	68.267	0.0132
850.000000	68.275	0.7948
862.000000	68.291	1.5626
875.000000	68.306	2.3774
885.000000	68.318	3.0070
900.000000	68.342	3.9655
912.000000	68.363	4.7095
925.000000	68.389	5.4773
938.000000	68.416	6.2649
950.000000	68.447	7.0073
962.000000	68.481	7.7316
975.000000	68.516	8.4755
988.000000	68.559	9.1840
1000.000000	68.605	9.8693
1015.000000	68.673	10.6847
1030.000000	68.747	11.4557
1044.000000	68.821	12.1335
1060.000000	68.911	12.8766
1075.000000	68.996	13.5345
1090.000000	69.081	14.1539
1106.000000	69.173	14.7805
1120.000000	69.252	15.3048
1138.000000	69.352	15.9250
1150.000000	69.418	16.3049
1172.000000	69.542	16.9602
1180.000000	69.585	17.1788
1206.000000	69.721	17.8879
1220.000000	69.789	18.2449
1241.000000	69.889	18.7379
1250.000000	69.927	18.9497
1265.000000	69.977	19.2865
1280.000000	70.019	19.6100
1315.000000	70.108	20.3574
1320.000000	70.118	20.4618
1340.000000	70.164	20.8824
1360.000000	70.210	21.2802
1380.000000	70.254	21.6681
1400.000000	70.295	22.0781
1430.000000	70.353	22.6880
1450.000000	70.390	23.0891
1475.000000	70.441	23.5896
1500.000000	70.491	24.0734
1525.000000	70.541	24.5646
1550.000000	70.587	25.0732
1575.000000	70.634	25.5864
1600.000000	70.687	26.0724
1625.000000	70.767	26.5686
1650.000000	70.857	27.0501
1675.000000	70.945	27.5356
1700.000000	71.038	28.0308
1725.000000	71.133	28.4971
1750.000000	71.226	28.9394
1775.000000	71.319	29.4462
1800.000000	71.416	29.9134
1825.000000	71.517	30.3166
1850.000000	71.620	30.7487
1875.000000	71.722	31.1963
1900.000000	71.821	31.6073
1925.000000	71.925	32.0152
1950.000000	72.030	32.4182
1975.000000	72.135	32.7931
2000.000000	72.239	33.1799
2030.000000	72.363	33.6169
2060.000000	72.489	33.9978
2090.000000	72.613	34.3831
2120.000000	72.737	34.7981
2140.000000	72.821	35.0264
2180.000000	72.994	35.4266
2200.000000	73.083	35.6494
2240.000000	73.259	36.0275
2270.000000	73.394	36.2656
2300.000000	73.529	36.5161
2330.000000	73.663	36.7195
2360.000000	73.801	36.8856
2400.000000	73.984	37.0945
2430.000000	74.121	37.2332
2470.000000	74.307	37.3468
2500.000000	74.447	37.4139
2540.000000	74.634	37.4550
2580.000000	74.820	37.4310
2620.000000	75.008	37.3850
2650.000000	75.149	37.3040
2690.000000	75.338	37.1429
2720.000000	75.477	36.9946
2760.000000	75.660	36.7589
2800.000000	75.843	36.4658
2850.000000	76.070	36.0067
2900.000000	76.296	35.4653
2950.000000	76.517	34.8358
3000.000000	76.732	34.1420
3040.000000	76.901	33.5134
3070.000000	77.028	33.0104
3110.000000	77.194	32.2927
3150.000000	77.358	31.5254
3200.000000	77.557	30.4842
3250.000000	77.747	29.3754
3300.000000	77.928	28.2025
3350.000000	78.108	26.9370
3400.000000	78.283	25.5931
3450.000000	78.452	24.1611
3500.000000	78.612	22.6554
3550.000000	78.766	21.0498
3600.000000	78.917	19.3408
3650.000000	79.066	17.5098
3700.000000	79.211	15.5474
3750.000000	79.348	13.4420
3820.000000	79.528	10.2025
3870.000000	79.644	7.6619
3950.000000	79.800	3.1383
4000.000000	79.870	0.0187
4060.000000	79.913	-4.0327
4120.000000	79.905	-8.3830
4180.000000	79.834	-12.9623
4250.000000	79.650	-18.4233
4310.000000	79.402	-23.0248
4370.000000	79.073	-27.3973
4440.000000	78.595	-32.0007
4500.000000	78.111	-35.3947
4550.000000	77.667	-37.7820
4620.000000	77.008	-40.4771
4680.000000	76.426	-42.1972
4750.000000	75.749	-43.5865
4820.000000	75.089	-44.3981
4870.000000	74.630	-44.6802
4940.000000	74.005	-44.7027
5000.000000	73.489	-44.4467
5080.000000	72.836	-43.8236
5150.000000	72.301	-43.0418
5220.000000	71.797	-42.0979
5300.000000	71.257	-40.8229
5380.000000	70.750	-39.4314
5450.000000	70.335	-38.1288
5520.000000	69.944	-36.7599
5600.000000	69.522	-35.1125
5700.000000	69.016	-32.9233
5800.000000	68.543	-30.5907
5900.000000	68.096	-27.9664
6000.000000	67.704	-24.7928
6080.000000	67.507	-21.8095
6150.000000	67.489	-19.5829
6220.000000	67.515	-18.5499
6300.000000	67.410	-18.1913
6400.000000	67.166	-17.1583
6500.000000	66.920	-15.4107
6600.000000	66.708	-13.3859
6700.000000	66.529	-11.2288
6800.000000	66.391	-9.0511
6900.000000	66.287	-6.8694
7000.000000	66.185	-4.6077
7100.000000	66.110	-2.3634
7200.000000	66.077	-0.1743
7300.000000	66.058	1.9612
7400.000000	66.043	4.0463
7500.000000	66.054	6.0565
7620.000000	66.081	8.4257
7750.000000	66.127	10.9259
7880.000000	66.211	13.3112
8000.000000	66.288	15.4180
8120.000000	66.315	17.3846
8250.000000	66.338	19.4044
8380.000000	66.382	21.2449
8500.000000	66.443	22.7870
8620.000000	66.528	24.1480
8750.000000	66.632	25.4305
8850.000000	66.725	26.2731
9000.000000	66.877	27.2993
9120.000000	67.013	27.9243
9250.000000	67.177	28.3617
9380.000000	67.346	28.5909
9500.000000	67.500	28.5605
9620.000000	67.645	28.3187
9750.000000	67.791	27.8066
9880.000000	67.931	27.0845
10000.000000	68.061	26.2950
10150.000000	68.261	25.1589
10300.000000	68.452	23.9447
10440.000000	68.624	22.7203
10600.000000	68.842	21.1558
10750.000000	69.062	19.4478
10900.000000	69.298	17.3037
11060.000000	69.545	14.4039
11200.000000	69.727	11.2432
11380.000000	69.866	6.3996
11500.000000	69.879	2.7331
11720.000000	69.706	-4.5886
11800.000000	69.568	-7.3477
12060.000000	68.824	-16.1243
12200.000000	68.250	-20.4308
12410.000000	67.197	-25.8852
12500.000000	66.692	-27.7749
12650.000000	65.782	-30.3595
12800.000000	64.831	-32.2848
13150.000000	62.582	-34.4450
13200.000000	62.264	-34.5313
13400.000000	60.998	-34.4261
13600.000000	59.780	-33.7615
13800.000000	58.606	-32.6626
14000.000000	57.454	-31.1750
14300.000000	55.792	-28.4612
14500.000000	54.729	-26.3600
14750.000000	53.453	-23.4681
15000.000000	52.230	-20.4143
15250.000000	51.037	-16.9832
15500.000000	49.881	-13.3513
15750.000000	48.786	-9.4675
16000.000000	47.783	-4.8939
16250.000000	47.081	0.3123
16500.000000	46.661	5.7319
16750.000000	46.299	9.8542
17000.000000	45.832	14.6153
17250.000000	45.437	19.6125
17500.000000	45.128	24.5699
17750.000000	44.847	29.6345
18000.000000	44.596	34.3640
18250.000000	44.378	38.7653
18500.000000	44.142	42.6287
18750.000000	43.912	45.9722
19000.000000	43.566	48.3510
19250.000000	43.093	49.6857
19500.000000	42.349	49.7223
19750.000000	41.349	49.3873
