* Measurement data measured by REW V5.20.13
* Source: EXCL: Microphone (USB Sound Device        ), MICROPHONE (Master Volume), L, volume: 0.250
* Format: 256k Log Swept Sine, 1 sweep at -6.0 dBFS with no timing reference
* Dated: Sep 14, 2023 6:28:53 PM
* REW Settings:
*  C-weighting compensation: Off
*  Target level: 75.0 dB
* Note: ; 
* Measurement: n.Black f.Pink Foam L
* Smoothing: None
* Frequency Step: 1/48 octave
* Start Frequency: 1.000 Hz
*
* Freq(Hz)	SPL(dB)	Phase(degrees)
1.000000	62.784	-150.1796
1.015000	62.846	-151.6797
1.030000	62.906	-153.1741
1.044000	62.960	-154.5645
1.060000	63.019	-156.1499
1.075000	63.073	-157.6337
1.090000	63.125	-159.1163
1.106000	63.178	-160.6963
1.120000	63.223	-162.0705
1.138000	63.277	-163.8239
1.150000	63.312	-164.9847
1.172000	63.373	-167.0963
1.180000	63.394	-167.8590
1.206000	63.459	-170.3194
1.220000	63.491	-171.6329
1.241000	63.536	-173.5889
1.250000	63.554	-174.4220
1.265000	63.583	-175.8041
1.280000	63.609	-177.1780
1.315000	63.664	179.6459
1.320000	63.671	179.1954
1.340000	63.696	177.4014
1.360000	63.718	175.6195
1.380000	63.736	173.8490
1.400000	63.750	172.0894
1.430000	63.765	169.4689
1.450000	63.771	167.7338
1.475000	63.773	165.5772
1.500000	63.771	163.4335
1.525000	63.763	161.3038
1.550000	63.751	159.1895
1.575000	63.734	157.0918
1.600000	63.711	155.0123
1.625000	63.683	152.9521
1.650000	63.648	150.9128
1.675000	63.607	148.8955
1.700000	63.560	146.9016
1.725000	63.506	144.9325
1.750000	63.445	142.9895
1.775000	63.377	141.0740
1.800000	63.301	139.1873
1.825000	63.217	137.3307
1.850000	63.126	135.4930
1.875000	63.031	133.6489
1.900000	62.931	131.8051
1.925000	62.826	129.9694
1.950000	62.715	128.1500
1.975000	62.597	126.3549
2.000000	62.471	124.5920
2.030000	62.309	122.5305
2.060000	62.135	120.5407
2.090000	61.947	118.6366
2.120000	61.743	116.8320
2.140000	61.598	115.6910
2.180000	61.285	113.5767
2.200000	61.117	112.6103
2.240000	60.740	110.6244
2.270000	60.423	109.0693
2.300000	60.083	107.5180
2.330000	59.725	106.0245
2.360000	59.354	104.6429
2.400000	58.849	103.0682
2.430000	58.469	102.1579
2.470000	57.970	101.4078
2.500000	57.609	101.2630
2.540000	57.155	101.7299
2.580000	56.733	103.0941
2.620000	56.265	105.5832
2.650000	55.887	108.0899
2.690000	55.373	112.0899
2.720000	54.995	115.4502
2.760000	54.527	120.2157
2.800000	54.128	125.0839
2.850000	53.772	130.9426
2.900000	53.631	136.1060
2.950000	53.766	140.2213
3.000000	54.214	144.0342
3.040000	54.752	146.9641
3.070000	55.236	149.0532
3.110000	55.952	151.6474
3.150000	56.715	153.9699
3.200000	57.671	156.4025
3.250000	58.557	158.2063
3.300000	59.292	159.2672
3.350000	59.930	159.4176
3.400000	60.542	158.7283
3.450000	61.125	157.3982
3.500000	61.677	155.6261
3.550000	62.196	153.6108
3.600000	62.679	151.5513
3.650000	63.123	149.6465
3.700000	63.525	147.9114
3.750000	63.883	146.0295
3.820000	64.320	143.2100
3.870000	64.593	141.1288
3.950000	64.976	137.8141
4.000000	65.191	135.8262
4.060000	65.427	133.5703
4.120000	65.624	131.3298
4.180000	65.785	129.1165
4.250000	65.936	126.6197
4.310000	66.041	124.5967
4.370000	66.131	122.7222
4.440000	66.217	120.7407
4.500000	66.259	119.1619
4.550000	66.278	117.9372
4.620000	66.287	116.3805
4.680000	66.290	115.2100
4.750000	66.298	114.0579
4.820000	66.307	113.1694
4.870000	66.304	112.6975
4.940000	66.296	112.2241
5.000000	66.295	111.9560
5.080000	66.316	111.7354
5.150000	66.370	111.6278
5.220000	66.449	111.7208
5.300000	66.564	112.0205
5.380000	66.705	112.3829
5.450000	66.849	112.6335
5.520000	67.012	112.7344
5.600000	67.236	112.7883
5.700000	67.552	112.7636
5.800000	67.880	112.5488
5.900000	68.193	112.0518
6.000000	68.511	111.2593
6.080000	68.763	110.4713
6.150000	68.973	109.7106
6.220000	69.166	108.9177
6.300000	69.365	107.9433
6.400000	69.592	106.5834
6.500000	69.793	105.1753
6.600000	69.968	103.8362
6.700000	70.110	102.5434
6.800000	70.225	101.2753
6.900000	70.322	100.0992
7.000000	70.410	99.0751
7.100000	70.479	98.1844
7.200000	70.537	97.4079
7.300000	70.597	96.7356
7.400000	70.665	96.1806
7.500000	70.734	95.7580
7.620000	70.824	95.3343
7.750000	70.941	94.8766
7.880000	71.079	94.4775
8.000000	71.215	94.0868
8.120000	71.355	93.5912
8.250000	71.517	92.9680
8.380000	71.676	92.2628
8.500000	71.809	91.5272
8.620000	71.935	90.7029
8.750000	72.058	89.7729
8.850000	72.139	89.0622
9.000000	72.241	87.9647
9.120000	72.310	87.1130
9.250000	72.373	86.2599
9.380000	72.422	85.4570
9.500000	72.464	84.7674
9.620000	72.507	84.1400
9.750000	72.552	83.5233
9.880000	72.591	82.9349
10.000000	72.618	82.4109
10.150000	72.644	81.7840
10.300000	72.668	81.1327
10.440000	72.688	80.5010
10.600000	72.708	79.7527
10.750000	72.723	79.0127
10.900000	72.736	78.2462
11.060000	72.741	77.4303
11.200000	72.739	76.7120
11.380000	72.732	75.8139
11.500000	72.723	75.2393
11.720000	72.704	74.2253
11.800000	72.698	73.8710
12.060000	72.678	72.7605
12.200000	72.669	72.1683
12.410000	72.658	71.2862
12.500000	72.661	70.9029
12.650000	72.674	70.2572
12.800000	72.690	69.6106
13.150000	72.718	68.1110
13.200000	72.722	67.9032
13.400000	72.732	67.0903
13.600000	72.742	66.3120
13.800000	72.754	65.5749
14.000000	72.768	64.8574
14.300000	72.797	63.8043
14.500000	72.819	63.0921
14.750000	72.845	62.1911
15.000000	72.868	61.2820
15.250000	72.884	60.3945
15.500000	72.896	59.5516
15.750000	72.907	58.7617
16.000000	72.923	58.0238
16.250000	72.948	57.3084
16.500000	72.981	56.5996
16.750000	73.015	55.8747
17.000000	73.046	55.1366
17.250000	73.074	54.3954
17.500000	73.097	53.6670
17.750000	73.118	52.9680
18.000000	73.137	52.2964
18.250000	73.158	51.6495
18.500000	73.180	51.0086
18.750000	73.203	50.3667
19.000000	73.227	49.7173
19.250000	73.248	49.0655
19.500000	73.268	48.4194
19.750000	73.285	47.7847
20.000000	73.304	47.1655
20.299999	73.328	46.4347
20.600000	73.354	45.7090
20.900000	73.380	44.9815
21.200001	73.405	44.2551
21.400000	73.420	43.7782
21.799999	73.449	42.8502
22.000000	73.463	42.3997
22.400000	73.494	41.5158
22.700001	73.519	40.8545
23.000000	73.543	40.1888
23.299999	73.563	39.5268
23.600000	73.581	38.8796
24.000000	73.603	38.0510
24.299999	73.620	37.4517
24.700001	73.643	36.6637
25.000000	73.660	36.0702
25.400000	73.680	35.2751
25.799999	73.696	34.4902
26.200001	73.710	33.7255
26.500000	73.719	33.1611
26.900000	73.732	32.4100
27.200001	73.741	31.8441
27.600000	73.750	31.0901
28.000000	73.757	30.3450
28.500000	73.766	29.4255
29.000000	73.775	28.5060
29.500000	73.781	27.5872
30.000000	73.787	26.6844
30.400000	73.791	25.9751
30.700001	73.796	25.4454
31.100000	73.801	24.7384
31.500000	73.804	24.0352
32.000000	73.806	23.1760
32.500000	73.808	22.3417
33.000000	73.810	21.5169
33.500000	73.810	20.6951
34.000000	73.808	19.8868
34.500000	73.805	19.0982
35.000000	73.801	18.3208
35.500000	73.796	17.5477
36.000000	73.790	16.7823
36.500000	73.783	16.0258
37.000000	73.776	15.2742
37.500000	73.766	14.5300
38.200001	73.752	13.5162
38.700001	73.743	12.8068
39.500000	73.728	11.6707
40.000000	73.716	10.9717
40.599998	73.702	10.1586
41.200001	73.689	9.3638
41.799999	73.676	8.5795
42.500000	73.658	7.6841
43.099998	73.643	6.9309
43.700001	73.626	6.1893
44.400002	73.605	5.3455
45.000000	73.587	4.6367
45.500000	73.572	4.0529
46.200001	73.548	3.2536
46.799999	73.528	2.5862
47.500000	73.504	1.8208
48.200001	73.477	1.0789
48.700001	73.459	0.5654
49.400002	73.433	-0.1432
50.000000	73.410	-0.7433
50.799999	73.379	-1.5236
51.500000	73.350	-2.1887
52.200001	73.321	-2.8340
53.000000	73.288	-3.5497
53.799999	73.254	-4.2507
54.500000	73.224	-4.8444
55.200001	73.194	-5.4222
56.000000	73.158	-6.0646
57.000000	73.114	-6.8336
58.000000	73.069	-7.5885
59.000000	73.022	-8.3055
60.000000	72.977	-9.0002
60.799999	72.939	-9.5506
61.500000	72.904	-10.0141
62.200001	72.870	-10.4565
63.000000	72.833	-10.9524
64.000000	72.782	-11.5698
65.000000	72.729	-12.1545
66.000000	72.677	-12.7090
67.000000	72.626	-13.2515
68.000000	72.573	-13.7719
69.000000	72.522	-14.2698
70.000000	72.470	-14.7708
71.000000	72.417	-15.2417
72.000000	72.365	-15.6949
73.000000	72.312	-16.1348
74.000000	72.259	-16.5583
75.000000	72.206	-16.9612
76.199997	72.145	-17.4457
77.500000	72.074	-17.9471
78.800003	72.007	-18.4225
80.000000	71.943	-18.8533
81.199997	71.883	-19.2537
82.500000	71.815	-19.6788
83.800003	71.749	-20.0803
85.000000	71.686	-20.4370
86.199997	71.626	-20.7672
87.500000	71.562	-21.1364
88.500000	71.510	-21.4059
90.000000	71.434	-21.7869
91.199997	71.373	-22.0773
92.500000	71.309	-22.3766
93.800003	71.243	-22.6772
95.000000	71.184	-22.9198
96.199997	71.125	-23.1686
97.500000	71.063	-23.4253
98.800003	71.000	-23.6766
100.000000	70.943	-23.8993
101.500000	70.870	-24.1593
103.000000	70.801	-24.4054
104.400002	70.735	-24.6254
106.000000	70.662	-24.8679
107.500000	70.593	-25.0795
109.000000	70.524	-25.2786
110.599998	70.452	-25.4988
112.000000	70.387	-25.6481
113.800003	70.308	-25.8500
115.000000	70.256	-25.9736
117.199997	70.159	-26.1914
118.000000	70.127	-26.2650
120.599998	70.015	-26.5015
122.000000	69.957	-26.6093
124.099998	69.870	-26.7560
125.000000	69.834	-26.8213
126.500000	69.778	-26.9338
128.000000	69.721	-27.0195
131.500000	69.595	-27.2089
132.000000	69.577	-27.2256
134.000000	69.508	-27.3160
136.000000	69.439	-27.3819
138.000000	69.369	-27.4583
140.000000	69.303	-27.5179
143.000000	69.201	-27.5868
145.000000	69.138	-27.5970
147.500000	69.055	-27.6482
150.000000	68.975	-27.6635
152.500000	68.898	-27.6811
155.000000	68.822	-27.6625
157.500000	68.747	-27.6550
160.000000	68.672	-27.6234
162.500000	68.588	-27.5939
165.000000	68.501	-27.5474
167.500000	68.420	-27.4960
170.000000	68.335	-27.4354
172.500000	68.259	-27.3734
175.000000	68.178	-27.2866
177.500000	68.100	-27.2034
180.000000	68.025	-27.1161
182.500000	67.948	-27.0267
185.000000	67.874	-26.9188
187.500000	67.802	-26.8050
190.000000	67.731	-26.6979
192.500000	67.661	-26.5882
195.000000	67.593	-26.4377
197.500000	67.525	-26.3265
200.000000	67.458	-26.1592
203.000000	67.386	-25.9907
206.000000	67.317	-25.8445
209.000000	67.247	-25.6533
212.000000	67.179	-25.4727
214.000000	67.137	-25.3306
218.000000	67.050	-25.0803
220.000000	67.006	-24.9156
224.000000	66.923	-24.6672
227.000000	66.862	-24.4399
230.000000	66.802	-24.2260
233.000000	66.742	-24.0083
236.000000	66.688	-23.8006
240.000000	66.612	-23.4856
243.000000	66.556	-23.2543
247.000000	66.485	-22.9433
250.000000	66.432	-22.6884
254.000000	66.368	-22.3726
258.000000	66.302	-22.0444
262.000000	66.241	-21.7102
265.000000	66.195	-21.4551
269.000000	66.135	-21.1190
272.000000	66.094	-20.8490
276.000000	66.035	-20.5111
280.000000	65.982	-20.1924
285.000000	65.914	-19.7365
290.000000	65.848	-19.3090
295.000000	65.789	-18.8508
300.000000	65.731	-18.4183
304.000000	65.682	-18.0334
307.000000	65.649	-17.7537
311.000000	65.602	-17.3784
315.000000	65.562	-17.0341
320.000000	65.508	-16.5806
325.000000	65.456	-16.1209
330.000000	65.405	-15.6632
335.000000	65.359	-15.1824
340.000000	65.317	-14.7423
345.000000	65.271	-14.2806
350.000000	65.233	-13.8190
355.000000	65.192	-13.3455
360.000000	65.148	-12.9064
365.000000	65.114	-12.4486
370.000000	65.073	-11.9926
375.000000	65.042	-11.4965
382.000000	64.989	-10.8851
387.000000	64.960	-10.4211
395.000000	64.908	-9.6877
400.000000	64.879	-9.2372
406.000000	64.841	-8.6893
412.000000	64.807	-8.1091
418.000000	64.783	-7.5876
425.000000	64.745	-6.9297
431.000000	64.719	-6.3718
437.000000	64.689	-5.8314
444.000000	64.656	-5.1998
450.000000	64.633	-4.6397
455.000000	64.611	-4.1431
462.000000	64.588	-3.5517
468.000000	64.569	-2.9785
475.000000	64.546	-2.3387
482.000000	64.524	-1.6957
487.000000	64.509	-1.2557
494.000000	64.494	-0.5592
500.000000	64.480	-0.0510
508.000000	64.464	0.6904
515.000000	64.455	1.3278
522.000000	64.440	1.9763
530.000000	64.435	2.6850
538.000000	64.423	3.4044
545.000000	64.424	4.0422
552.000000	64.416	4.6666
560.000000	64.415	5.3926
570.000000	64.405	6.2922
580.000000	64.408	7.1835
590.000000	64.412	8.0552
600.000000	64.415	8.9550
608.000000	64.425	9.6841
615.000000	64.427	10.2817
622.000000	64.436	10.8973
630.000000	64.443	11.6046
640.000000	64.460	12.4778
650.000000	64.479	13.3550
660.000000	64.500	14.2344
670.000000	64.518	15.1238
680.000000	64.548	15.9741
690.000000	64.573	16.8580
700.000000	64.599	17.7107
710.000000	64.627	18.5793
720.000000	64.659	19.4099
730.000000	64.688	20.2592
740.000000	64.727	21.1219
750.000000	64.759	22.0056
762.000000	64.804	22.9957
775.000000	64.856	24.1201
788.000000	64.905	25.2564
800.000000	64.955	26.3372
812.000000	65.009	27.4724
825.000000	65.072	28.7146
838.000000	65.158	29.9447
850.000000	65.260	30.9814
862.000000	65.359	31.8757
875.000000	65.467	32.7243
885.000000	65.549	33.3625
900.000000	65.660	34.3344
912.000000	65.745	35.2086
925.000000	65.843	36.1110
938.000000	65.944	36.9663
950.000000	66.042	37.7401
962.000000	66.138	38.4855
975.000000	66.242	39.2708
988.000000	66.356	40.0409
1000.000000	66.449	40.7175
1015.000000	66.604	41.4819
1030.000000	66.753	42.2375
1044.000000	66.883	42.8904
1060.000000	67.039	43.6265
1075.000000	67.186	44.2803
1090.000000	67.330	44.8946
1106.000000	67.481	45.5316
1120.000000	67.617	46.0584
1138.000000	67.790	46.7035
1150.000000	67.900	47.0989
1172.000000	68.101	47.8158
1180.000000	68.173	48.0608
1206.000000	68.409	48.8651
1220.000000	68.530	49.3089
1241.000000	68.712	49.9176
1250.000000	68.791	50.1968
1265.000000	68.898	50.6165
1280.000000	69.004	51.0179
1315.000000	69.253	51.9766
1320.000000	69.286	52.0896
1340.000000	69.432	52.6119
1360.000000	69.574	53.0631
1380.000000	69.724	53.5034
1400.000000	69.867	53.9264
1430.000000	70.094	54.5013
1450.000000	70.241	54.8904
1475.000000	70.432	55.2663
1500.000000	70.625	55.6491
1525.000000	70.816	55.9179
1550.000000	71.015	56.1252
1575.000000	71.204	56.3011
1600.000000	71.403	56.3885
1625.000000	71.635	56.3827
1650.000000	71.866	56.2977
1675.000000	72.096	56.1201
1700.000000	72.320	55.8337
1725.000000	72.537	55.4174
1750.000000	72.750	54.9291
1775.000000	72.956	54.2896
1800.000000	73.152	53.5643
1825.000000	73.344	52.7180
1850.000000	73.531	51.7282
1875.000000	73.709	50.6467
1900.000000	73.884	49.4404
1925.000000	74.052	48.1240
1950.000000	74.215	46.6721
1975.000000	74.369	45.1406
2000.000000	74.504	43.5898
2030.000000	74.645	41.4522
2060.000000	74.759	39.3482
2090.000000	74.843	37.2047
2120.000000	74.902	35.0351
2140.000000	74.930	33.5870
2180.000000	74.948	30.7993
2200.000000	74.945	29.4520
2240.000000	74.909	26.8769
2270.000000	74.866	25.0808
2300.000000	74.806	23.4368
2330.000000	74.739	21.9161
2360.000000	74.659	20.5627
2400.000000	74.546	18.9313
2430.000000	74.455	17.8744
2470.000000	74.327	16.6346
2500.000000	74.236	15.8528
2540.000000	74.112	14.9980
2580.000000	73.998	14.3090
2620.000000	73.889	13.7920
2650.000000	73.811	13.4781
2690.000000	73.713	13.1970
2720.000000	73.647	13.0315
2760.000000	73.558	12.8856
2800.000000	73.476	12.8240
2850.000000	73.382	12.8596
2900.000000	73.290	13.0930
2950.000000	73.212	13.5257
3000.000000	73.153	14.2866
3040.000000	73.117	15.2001
3070.000000	73.119	16.0176
3110.000000	73.168	17.3976
3150.000000	73.293	18.9625
3200.000000	73.583	20.8087
3250.000000	74.009	22.1002
3300.000000	74.523	22.2557
3350.000000	75.047	21.1227
3400.000000	75.521	18.6300
3450.000000	75.895	15.0328
3500.000000	76.165	10.5564
3550.000000	76.319	5.4000
3600.000000	76.365	-0.2806
3650.000000	76.310	-6.2202
3700.000000	76.166	-12.0121
3750.000000	75.943	-17.2880
3820.000000	75.510	-23.4399
3870.000000	75.122	-26.9680
3950.000000	74.400	-31.1493
4000.000000	73.899	-33.0834
4060.000000	73.278	-34.6358
4120.000000	72.641	-35.6659
4180.000000	72.012	-36.1029
4250.000000	71.310	-36.0093
4310.000000	70.759	-35.5035
4370.000000	70.250	-34.6991
4440.000000	69.734	-33.4087
4500.000000	69.358	-32.2968
4550.000000	69.098	-31.4144
4620.000000	68.815	-30.5048
4680.000000	68.609	-30.2081
4750.000000	68.409	-30.5204
4820.000000	68.167	-31.6550
4870.000000	67.921	-33.0112
4940.000000	67.388	-35.1559
5000.000000	66.732	-36.4856
5080.000000	65.625	-36.6866
5150.000000	64.613	-34.8743
5220.000000	63.681	-31.6314
5300.000000	62.824	-27.0768
5380.000000	62.152	-22.0917
5450.000000	61.676	-17.7538
5520.000000	61.299	-13.5666
5600.000000	60.934	-8.8300
5700.000000	60.579	-3.0649
5800.000000	60.258	2.5885
5900.000000	60.011	8.3865
6000.000000	59.913	15.1848
6080.000000	60.117	20.5773
6150.000000	60.333	22.7812
6220.000000	60.355	25.3497
6300.000000	60.430	28.9923
6400.000000	60.644	33.5811
6500.000000	60.950	37.9832
6600.000000	61.332	42.2922
6700.000000	61.784	46.7474
6800.000000	62.372	50.8219
6900.000000	63.025	54.5919
7000.000000	63.795	57.9727
7100.000000	64.670	61.1026
7200.000000	65.703	63.3229
7300.000000	66.840	64.6489
7400.000000	68.115	64.6685
7500.000000	69.514	62.9465
7620.000000	71.222	57.6531
7750.000000	72.822	46.5485
7880.000000	73.613	30.7172
8000.000000	73.420	16.0420
8120.000000	72.567	4.9739
8250.000000	71.483	-2.4260
8380.000000	70.537	-6.6893
8500.000000	69.859	-9.2800
8620.000000	69.397	-11.4500
8750.000000	69.103	-14.2024
8850.000000	68.972	-17.0295
9000.000000	68.858	-23.0742
9120.000000	68.663	-29.7452
9250.000000	68.216	-38.3398
9380.000000	67.385	-47.3210
9500.000000	66.328	-54.8512
9620.000000	65.070	-60.9678
9750.000000	63.618	-65.6123
9880.000000	62.177	-68.9360
10000.000000	60.922	-70.9110
10150.000000	59.554	-72.8163
10300.000000	58.311	-74.2739
10440.000000	57.245	-75.6515
10600.000000	56.043	-78.2649
10750.000000	54.924	-81.3765
10900.000000	53.658	-86.0637
11060.000000	52.106	-92.5515
11200.000000	50.467	-100.6366
11380.000000	47.493	-116.2848
11500.000000	45.212	-133.0322
11720.000000	41.550	163.3087
11800.000000	42.608	133.6414
12060.000000	48.909	79.8991
12200.000000	51.308	62.5579
12410.000000	53.882	37.2939
12500.000000	54.458	25.8868
12650.000000	54.383	6.7974
12800.000000	53.265	-8.5542
13150.000000	49.320	-23.9612
13200.000000	48.803	-23.9972
13400.000000	46.835	-22.1595
13600.000000	45.722	-16.5426
13800.000000	44.885	-10.6703
14000.000000	44.532	-5.2042
14300.000000	43.600	1.6254
14500.000000	43.360	9.0566
14750.000000	43.359	16.3260
15000.000000	43.532	24.5169
15250.000000	44.463	34.2811
15500.000000	45.903	42.8566
15750.000000	47.628	46.2684
16000.000000	50.211	41.8817
16250.000000	52.367	29.9390
16500.000000	52.870	13.3413
16750.000000	51.977	1.6433
17000.000000	50.749	-0.8031
17250.000000	49.835	0.5872
17500.000000	49.448	6.5270
17750.000000	49.526	11.3291
18000.000000	50.066	15.9750
18250.000000	50.837	19.4907
18500.000000	51.759	19.6976
18750.000000	52.765	17.1458
19000.000000	53.615	11.4390
19250.000000	53.775	4.1447
19500.000000	53.596	-4.8526
19750.000000	53.360	-14.0765
