* Measurement data measured by REW V5.20.13
* Source: C:\Users\marcu\OneDrive\Desktop\Fix\ n.Red f.Blue Foam L.txt
* Format: Comma/Tab/Space delimited data
* Dated: Jul 25, 2023 10:23:39 PM
* REW Settings:
*  C-weighting compensation: Off
*  Target level: 75.0 dB
* Note: ; Measurement imported from C:\Users\marcu\OneDrive\Desktop\Fix\ n.Red f.Blue Foam L.txt Format: Comma/Tab/Space delimited data 54613 values loaded, 0 Hz to 20,000 Hz 
* Measurement:  n.Red f.Blue Foam L
* Smoothing: None
* Frequency Step: 1/48 octave
* Start Frequency: 1.000 Hz
*
* Freq(Hz)	SPL(dB)	Phase(degrees)
1.000000	66.901	-146.0079
1.015000	66.948	-147.6083
1.030000	66.992	-149.2033
1.044000	67.032	-150.6879
1.060000	67.075	-152.3808
1.075000	67.114	-153.9653
1.090000	67.150	-155.5482
1.106000	67.186	-157.2347
1.120000	67.217	-158.7019
1.138000	67.253	-160.5751
1.150000	67.277	-161.8159
1.172000	67.316	-164.0748
1.180000	67.330	-164.8913
1.206000	67.371	-167.5277
1.220000	67.390	-168.9369
1.241000	67.417	-171.0378
1.250000	67.427	-171.9336
1.265000	67.443	-173.4211
1.280000	67.456	-174.9016
1.315000	67.481	-178.3317
1.320000	67.484	-178.8191
1.340000	67.492	179.2372
1.360000	67.497	177.3024
1.380000	67.498	175.3757
1.400000	67.495	173.4561
1.430000	67.484	170.5882
1.450000	67.472	168.6827
1.475000	67.452	166.3073
1.500000	67.428	163.9448
1.525000	67.399	161.5963
1.550000	67.366	159.2620
1.575000	67.328	156.9415
1.600000	67.284	154.6348
1.625000	67.235	152.3419
1.650000	67.179	150.0623
1.675000	67.117	147.7962
1.700000	67.048	145.5433
1.725000	66.971	143.3035
1.750000	66.886	141.0767
1.775000	66.793	138.8627
1.800000	66.691	136.6614
1.825000	66.579	134.4726
1.850000	66.461	132.2924
1.875000	66.342	130.1129
1.900000	66.221	127.9368
1.925000	66.096	125.7671
1.950000	65.964	123.6071
1.975000	65.826	121.4597
2.000000	65.678	119.3280
2.030000	65.486	116.7952
2.060000	65.275	114.2949
2.090000	65.043	111.8323
2.120000	64.787	109.4130
2.140000	64.601	107.8267
2.180000	64.189	104.7251
2.200000	63.961	103.2096
2.240000	63.477	99.5487
2.270000	63.093	96.2325
2.300000	62.688	92.6408
2.330000	62.261	88.9659
2.360000	61.811	85.3997
2.400000	61.171	81.1462
2.430000	60.659	78.5812
2.470000	59.931	76.3600
2.500000	59.348	75.8423
2.540000	58.520	77.0483
2.580000	57.601	80.9218
2.620000	56.396	88.2110
2.650000	55.331	95.5773
2.690000	53.787	107.2644
2.720000	52.596	116.9739
2.760000	51.053	130.5116
2.800000	49.665	143.9631
2.850000	48.316	159.3889
2.900000	47.600	171.7558
2.950000	47.736	179.6946
3.000000	48.801	-175.4310
3.040000	50.176	-173.1165
3.070000	51.428	-172.1467
3.110000	53.287	-171.6817
3.150000	55.245	-171.9418
3.200000	57.636	-172.9188
3.250000	59.728	-174.1802
3.300000	61.272	-175.2604
3.350000	62.365	-176.7180
3.400000	63.225	-179.0126
3.450000	63.900	178.0808
3.500000	64.441	174.7872
3.550000	64.896	171.3316
3.600000	65.313	167.9390
3.650000	65.743	164.8342
3.700000	66.190	162.0544
3.750000	66.579	159.2722
3.820000	67.038	155.3869
3.870000	67.316	152.6492
3.950000	67.697	148.3957
4.000000	67.910	145.8516
4.060000	68.147	142.9325
4.120000	68.341	140.0891
4.180000	68.494	137.3356
4.250000	68.631	134.2761
4.310000	68.722	131.8184
4.370000	68.797	129.5438
4.440000	68.826	127.1337
4.500000	68.827	125.2306
4.550000	68.830	123.7665
4.620000	68.833	121.9211
4.680000	68.836	120.5454
4.750000	68.837	119.2027
4.820000	68.835	118.1860
4.870000	68.832	117.6664
4.940000	68.825	117.1733
5.000000	68.820	116.9184
5.080000	68.814	116.7366
5.150000	68.837	116.6666
5.220000	68.929	116.8369
5.300000	69.069	117.2610
5.380000	69.242	117.7457
5.450000	69.418	118.0684
5.520000	69.617	118.1829
5.600000	69.888	118.2031
5.700000	70.273	118.0800
5.800000	70.670	117.7103
5.900000	71.042	117.0045
6.000000	71.414	115.9308
6.080000	71.706	114.8818
6.150000	71.949	113.8814
6.220000	72.170	112.8503
6.300000	72.398	111.6020
6.400000	72.653	109.8819
6.500000	72.877	108.1104
6.600000	73.070	106.4224
6.700000	73.225	104.7925
6.800000	73.348	103.1953
6.900000	73.450	101.7064
7.000000	73.540	100.3928
7.100000	73.607	99.2321
7.200000	73.660	98.2052
7.300000	73.714	97.3038
7.400000	73.776	96.5442
7.500000	73.838	95.9415
7.620000	73.919	95.3243
7.750000	74.029	94.6752
7.880000	74.161	94.1119
8.000000	74.294	93.5788
8.120000	74.432	92.9348
8.250000	74.594	92.1518
8.380000	74.752	91.2815
8.500000	74.885	90.3816
8.620000	75.011	89.3832
8.750000	75.131	88.2594
8.850000	75.208	87.3974
9.000000	75.301	86.0653
9.120000	75.360	85.0298
9.250000	75.409	83.9881
9.380000	75.442	83.0034
9.500000	75.467	82.1597
9.620000	75.492	81.3958
9.750000	75.516	80.6480
9.880000	75.534	79.9448
10.000000	75.545	79.3314
10.150000	75.553	78.6122
10.300000	75.560	77.8776
10.440000	75.567	77.1785
10.600000	75.573	76.3570
10.750000	75.576	75.5442
10.900000	75.576	74.7039
11.060000	75.568	73.8052
11.200000	75.554	73.0106
11.380000	75.530	72.0155
11.500000	75.510	71.3773
11.720000	75.470	70.2520
11.800000	75.455	69.8608
12.060000	75.409	68.6397
12.200000	75.386	67.9939
12.410000	75.357	67.0376
12.500000	75.352	66.6227
12.650000	75.357	65.9252
12.800000	75.365	65.2268
13.150000	75.378	63.6023
13.200000	75.379	63.3771
13.400000	75.382	62.4942
13.600000	75.385	61.6507
13.800000	75.389	60.8544
14.000000	75.397	60.0839
14.300000	75.418	58.9610
14.500000	75.438	58.2047
14.750000	75.461	57.2470
15.000000	75.481	56.2785
15.250000	75.495	55.3294
15.500000	75.503	54.4291
15.750000	75.510	53.5892
16.000000	75.522	52.8134
16.250000	75.544	52.0713
16.500000	75.575	51.3449
16.750000	75.608	50.6072
17.000000	75.639	49.8567
17.250000	75.666	49.1032
17.500000	75.686	48.3631
17.750000	75.703	47.6564
18.000000	75.717	46.9830
18.250000	75.733	46.3423
18.500000	75.750	45.7142
18.750000	75.767	45.0894
19.000000	75.784	44.4592
19.250000	75.799	43.8259
19.500000	75.813	43.1975
19.750000	75.824	42.5798
20.000000	75.834	41.9781
20.299999	75.848	41.2699
20.600000	75.864	40.5684
20.900000	75.880	39.8658
21.200001	75.894	39.1629
21.400000	75.902	38.7007
21.799999	75.917	37.8008
22.000000	75.925	37.3643
22.400000	75.942	36.5093
22.700001	75.958	35.8701
23.000000	75.972	35.2249
23.299999	75.985	34.5807
23.600000	75.995	33.9489
24.000000	76.006	33.1385
24.299999	76.015	32.5535
24.700001	76.029	31.7887
25.000000	76.039	31.2162
25.400000	76.052	30.4541
25.799999	76.060	29.7078
26.200001	76.068	28.9875
26.500000	76.074	28.4594
26.900000	76.081	27.7595
27.200001	76.085	27.2327
27.600000	76.090	26.5315
28.000000	76.093	25.8409
28.500000	76.095	24.9969
29.000000	76.096	24.1639
29.500000	76.097	23.3386
30.000000	76.096	22.5319
30.400000	76.097	21.8993
30.700001	76.099	21.4268
31.100000	76.100	20.7952
31.500000	76.100	20.1659
32.000000	76.098	19.3979
32.500000	76.096	18.6567
33.000000	76.095	17.9297
33.500000	76.093	17.2090
34.000000	76.088	16.5015
34.500000	76.084	15.8135
35.000000	76.079	15.1398
35.500000	76.073	14.4756
36.000000	76.067	13.8225
36.500000	76.059	13.1796
37.000000	76.052	12.5424
37.500000	76.043	11.9105
38.200001	76.029	11.0465
38.700001	76.019	10.4426
39.500000	76.003	9.4854
40.000000	75.992	8.8992
40.599998	75.981	8.2118
41.200001	75.970	7.5325
41.799999	75.957	6.8627
42.500000	75.941	6.1086
43.099998	75.927	5.4822
43.700001	75.914	4.8654
44.400002	75.898	4.1582
45.000000	75.883	3.5638
45.500000	75.871	3.0782
46.200001	75.852	2.4174
46.799999	75.836	1.8627
47.500000	75.818	1.2181
48.200001	75.797	0.5888
48.700001	75.781	0.1543
49.400002	75.760	-0.4437
50.000000	75.743	-0.9526
50.799999	75.717	-1.6152
51.500000	75.696	-2.1785
52.200001	75.674	-2.7312
53.000000	75.649	-3.3486
53.799999	75.624	-3.9490
54.500000	75.601	-4.4611
55.200001	75.579	-4.9604
56.000000	75.552	-5.5143
57.000000	75.519	-6.1883
58.000000	75.484	-6.8365
59.000000	75.451	-7.4764
60.000000	75.413	-8.1126
60.799999	75.383	-8.5878
61.500000	75.359	-8.9971
62.200001	75.333	-9.4103
63.000000	75.303	-9.8683
64.000000	75.264	-10.4141
65.000000	75.225	-10.9506
66.000000	75.185	-11.4681
67.000000	75.145	-11.9649
68.000000	75.104	-12.4559
69.000000	75.062	-12.9284
70.000000	75.021	-13.3874
71.000000	74.980	-13.8376
72.000000	74.938	-14.2729
73.000000	74.897	-14.6952
74.000000	74.855	-15.1116
75.000000	74.813	-15.5151
76.199997	74.763	-15.9807
77.500000	74.709	-16.4672
78.800003	74.654	-16.9494
80.000000	74.602	-17.3717
81.199997	74.552	-17.7823
82.500000	74.498	-18.2206
83.800003	74.443	-18.6340
85.000000	74.393	-19.0051
86.199997	74.344	-19.3643
87.500000	74.290	-19.7451
88.500000	74.248	-20.0280
90.000000	74.185	-20.4371
91.199997	74.135	-20.7474
92.500000	74.082	-21.0824
93.800003	74.028	-21.4093
95.000000	73.979	-21.6998
96.199997	73.929	-21.9792
97.500000	73.876	-22.2714
98.800003	73.823	-22.5599
100.000000	73.774	-22.8153
101.500000	73.713	-23.1261
103.000000	73.653	-23.4276
104.400002	73.596	-23.6982
106.000000	73.532	-23.9922
107.500000	73.472	-24.2633
109.000000	73.412	-24.5209
110.599998	73.350	-24.7832
112.000000	73.294	-25.0094
113.800003	73.225	-25.2833
115.000000	73.178	-25.4602
117.199997	73.092	-25.7801
118.000000	73.059	-25.8828
120.599998	72.963	-26.2163
122.000000	72.909	-26.3922
124.099998	72.830	-26.6313
125.000000	72.798	-26.7325
126.500000	72.747	-26.9012
128.000000	72.696	-27.0697
131.500000	72.580	-27.4093
132.000000	72.564	-27.4565
134.000000	72.498	-27.6337
136.000000	72.434	-27.7978
138.000000	72.371	-27.9584
140.000000	72.306	-28.1077
143.000000	72.213	-28.3134
145.000000	72.152	-28.4487
147.500000	72.074	-28.5978
150.000000	72.000	-28.7357
152.500000	71.926	-28.8550
155.000000	71.854	-28.9720
157.500000	71.781	-29.0762
160.000000	71.707	-29.1567
162.500000	71.624	-29.2406
165.000000	71.540	-29.3214
167.500000	71.457	-29.3770
170.000000	71.376	-29.4173
172.500000	71.297	-29.4651
175.000000	71.217	-29.5079
177.500000	71.137	-29.5367
180.000000	71.060	-29.5583
182.500000	70.983	-29.5793
185.000000	70.906	-29.5828
187.500000	70.833	-29.5807
190.000000	70.758	-29.5807
192.500000	70.684	-29.5640
195.000000	70.611	-29.5439
197.500000	70.540	-29.5187
200.000000	70.471	-29.4821
203.000000	70.394	-29.4406
206.000000	70.317	-29.3891
209.000000	70.243	-29.3253
212.000000	70.170	-29.2667
214.000000	70.122	-29.2268
218.000000	70.028	-29.1142
220.000000	69.981	-29.0606
224.000000	69.888	-28.9464
227.000000	69.819	-28.8440
230.000000	69.753	-28.7346
233.000000	69.688	-28.6160
236.000000	69.624	-28.4905
240.000000	69.538	-28.3462
243.000000	69.475	-28.2252
247.000000	69.393	-28.0445
250.000000	69.333	-27.9138
254.000000	69.257	-27.7277
258.000000	69.182	-27.5380
262.000000	69.106	-27.3331
265.000000	69.052	-27.1722
269.000000	68.979	-26.9691
272.000000	68.926	-26.8036
276.000000	68.858	-26.5795
280.000000	68.790	-26.3468
285.000000	68.708	-26.0503
290.000000	68.628	-25.7590
295.000000	68.548	-25.4490
300.000000	68.472	-25.1487
304.000000	68.411	-24.8954
307.000000	68.368	-24.6948
311.000000	68.311	-24.4272
315.000000	68.252	-24.1669
320.000000	68.183	-23.8325
325.000000	68.114	-23.4905
330.000000	68.045	-23.1423
335.000000	67.980	-22.7979
340.000000	67.916	-22.4418
345.000000	67.856	-22.0813
350.000000	67.793	-21.7166
355.000000	67.734	-21.3528
360.000000	67.675	-20.9882
365.000000	67.619	-20.6233
370.000000	67.564	-20.2449
375.000000	67.509	-19.8759
382.000000	67.439	-19.3404
387.000000	67.387	-18.9742
395.000000	67.310	-18.3619
400.000000	67.263	-17.9749
406.000000	67.208	-17.5008
412.000000	67.155	-17.0276
418.000000	67.104	-16.5632
425.000000	67.043	-16.0153
431.000000	66.993	-15.5533
437.000000	66.947	-15.0685
444.000000	66.897	-14.4987
450.000000	66.852	-14.0165
455.000000	66.817	-13.6156
462.000000	66.768	-13.0485
468.000000	66.726	-12.5726
475.000000	66.682	-12.0059
482.000000	66.641	-11.4191
487.000000	66.609	-11.0121
494.000000	66.566	-10.4417
500.000000	66.533	-9.9490
508.000000	66.493	-9.2865
515.000000	66.458	-8.7078
522.000000	66.425	-8.1219
530.000000	66.389	-7.4585
538.000000	66.355	-6.7939
545.000000	66.326	-6.2021
552.000000	66.300	-5.6169
560.000000	66.271	-4.9474
570.000000	66.237	-4.0995
580.000000	66.205	-3.2466
590.000000	66.179	-2.4003
600.000000	66.154	-1.5460
608.000000	66.134	-0.8676
615.000000	66.120	-0.2634
622.000000	66.108	0.3441
630.000000	66.095	1.0334
640.000000	66.082	1.8875
650.000000	66.071	2.7303
660.000000	66.064	3.5882
670.000000	66.057	4.4405
680.000000	66.054	5.3040
690.000000	66.052	6.1458
700.000000	66.051	6.9851
710.000000	66.051	7.8251
720.000000	66.052	8.6854
730.000000	66.052	9.5661
740.000000	66.054	10.4849
750.000000	66.066	11.4628
762.000000	66.099	12.6096
775.000000	66.145	13.7496
788.000000	66.193	14.8351
800.000000	66.235	15.8221
812.000000	66.272	16.7874
825.000000	66.314	17.8154
838.000000	66.356	18.8401
850.000000	66.398	19.7595
862.000000	66.441	20.6788
875.000000	66.491	21.6478
885.000000	66.531	22.3839
900.000000	66.594	23.4910
912.000000	66.648	24.3409
925.000000	66.707	25.2596
938.000000	66.769	26.1628
950.000000	66.826	26.9896
962.000000	66.890	27.8115
975.000000	66.961	28.6710
988.000000	67.032	29.5291
1000.000000	67.104	30.3079
1015.000000	67.205	31.2348
1030.000000	67.315	32.1639
1044.000000	67.419	32.9996
1060.000000	67.542	33.9119
1075.000000	67.656	34.7307
1090.000000	67.774	35.5266
1106.000000	67.900	36.3465
1120.000000	68.012	37.0229
1138.000000	68.155	37.8535
1150.000000	68.252	38.3892
1172.000000	68.423	39.3224
1180.000000	68.486	39.6594
1206.000000	68.688	40.6908
1220.000000	68.795	41.2298
1241.000000	68.951	42.0078
1250.000000	69.014	42.3303
1265.000000	69.105	42.8663
1280.000000	69.189	43.3955
1315.000000	69.382	44.5892
1320.000000	69.409	44.7556
1340.000000	69.518	45.4274
1360.000000	69.626	46.0937
1380.000000	69.736	46.7438
1400.000000	69.845	47.3934
1430.000000	70.011	48.3474
1450.000000	70.121	48.9860
1475.000000	70.261	49.7714
1500.000000	70.405	50.5252
1525.000000	70.552	51.2766
1550.000000	70.700	52.0220
1575.000000	70.854	52.7392
1600.000000	71.017	53.4313
1625.000000	71.209	54.1076
1650.000000	71.412	54.7588
1675.000000	71.617	55.3732
1700.000000	71.826	55.9604
1725.000000	72.039	56.5085
1750.000000	72.257	57.0118
1775.000000	72.477	57.4754
1800.000000	72.700	57.8976
1825.000000	72.924	58.2695
1850.000000	73.151	58.5833
1875.000000	73.382	58.8362
1900.000000	73.613	59.0287
1925.000000	73.845	59.1524
1950.000000	74.076	59.2047
1975.000000	74.308	59.1769
2000.000000	74.537	59.0653
2030.000000	74.801	58.8142
2060.000000	75.058	58.4305
2090.000000	75.308	57.8985
2120.000000	75.551	57.2101
2140.000000	75.709	56.6649
2180.000000	76.013	55.3586
2200.000000	76.160	54.5938
2240.000000	76.447	52.8401
2270.000000	76.658	51.3232
2300.000000	76.864	49.6354
2330.000000	77.060	47.7833
2360.000000	77.242	45.7941
2400.000000	77.452	42.9559
2430.000000	77.581	40.7207
2470.000000	77.713	37.6444
2500.000000	77.781	35.3103
2540.000000	77.832	32.2122
2580.000000	77.842	29.1951
2620.000000	77.817	26.3351
2650.000000	77.778	24.3210
2690.000000	77.703	21.8458
2720.000000	77.634	20.1660
2760.000000	77.527	18.1584
2800.000000	77.409	16.4287
2850.000000	77.254	14.6318
2900.000000	77.095	13.2115
2950.000000	76.941	12.1207
3000.000000	76.796	11.3209
3040.000000	76.692	10.8564
3070.000000	76.620	10.5963
3110.000000	76.534	10.3560
3150.000000	76.459	10.2172
3200.000000	76.386	10.1638
3250.000000	76.334	10.2025
3300.000000	76.306	10.3195
3350.000000	76.301	10.4841
3400.000000	76.321	10.6680
3450.000000	76.365	10.8525
3500.000000	76.434	11.0009
3550.000000	76.526	11.1080
3600.000000	76.640	11.1373
3650.000000	76.779	11.0601
3700.000000	76.939	10.8437
3750.000000	77.121	10.4594
3820.000000	77.404	9.5689
3870.000000	77.624	8.6191
3950.000000	77.996	6.4401
4000.000000	78.229	4.5876
4060.000000	78.493	1.7971
4120.000000	78.729	-1.6761
4180.000000	78.920	-5.8965
4250.000000	79.062	-11.8477
4310.000000	79.090	-17.8235
4370.000000	79.014	-24.3715
4440.000000	78.784	-32.0592
4500.000000	78.466	-38.0624
4550.000000	78.118	-42.3782
4620.000000	77.516	-47.2619
4680.000000	76.912	-50.4197
4750.000000	76.136	-53.0546
4820.000000	75.320	-54.7319
4870.000000	74.728	-55.4431
4940.000000	73.903	-55.8649
5000.000000	73.206	-55.7694
5080.000000	72.296	-55.1282
5150.000000	71.535	-54.1557
5220.000000	70.814	-52.8821
5300.000000	70.038	-51.1130
5380.000000	69.316	-49.0781
5450.000000	68.723	-47.0996
5520.000000	68.164	-44.9749
5600.000000	67.569	-42.4161
5700.000000	66.871	-38.9911
5800.000000	66.221	-35.2844
5900.000000	65.621	-31.1838
6000.000000	65.090	-26.5248
6080.000000	64.778	-22.2780
6150.000000	64.664	-18.6064
6220.000000	64.661	-15.8856
6300.000000	64.582	-13.9927
6400.000000	64.340	-11.3678
6500.000000	64.101	-7.8982
6600.000000	63.918	-4.0515
6700.000000	63.795	-0.0560
6800.000000	63.722	4.0255
6900.000000	63.699	8.1281
7000.000000	63.724	12.2636
7100.000000	63.801	16.4115
7200.000000	63.931	20.5256
7300.000000	64.110	24.5265
7400.000000	64.339	28.4330
7500.000000	64.617	32.2648
7620.000000	65.014	36.7199
7750.000000	65.533	41.3555
7880.000000	66.152	45.6991
8000.000000	66.799	49.3688
8120.000000	67.470	52.5847
8250.000000	68.296	55.3901
8380.000000	69.251	57.2132
8500.000000	70.246	57.6670
8620.000000	71.311	56.4978
8750.000000	72.456	52.7916
8850.000000	73.222	47.9188
9000.000000	73.936	37.6273
9120.000000	73.975	28.2941
9250.000000	73.506	19.3906
9380.000000	72.694	13.2394
9500.000000	71.838	10.1818
9620.000000	71.012	9.1617
9750.000000	70.231	9.7618
9880.000000	69.619	11.6443
10000.000000	69.234	14.1591
10150.000000	69.041	17.9509
10300.000000	69.158	22.0493
10440.000000	69.554	25.6724
10600.000000	70.363	28.8292
10750.000000	71.434	29.8569
10900.000000	72.691	27.9209
11060.000000	74.007	21.6146
11200.000000	74.906	12.2047
11380.000000	75.381	-4.4532
11500.000000	75.119	-16.7484
11720.000000	73.465	-35.4457
11800.000000	72.604	-39.9812
12060.000000	69.555	-46.8474
12200.000000	68.011	-46.9506
12410.000000	65.994	-44.3179
12500.000000	65.240	-42.4963
12650.000000	64.115	-38.8395
12800.000000	63.160	-34.6445
13150.000000	61.585	-23.8077
13200.000000	61.432	-22.2107
13400.000000	61.010	-15.9161
13600.000000	60.904	-10.0612
13800.000000	61.153	-5.1362
14000.000000	61.812	-2.0339
14300.000000	63.573	-4.7502
14500.000000	64.763	-16.4625
14750.000000	64.394	-42.3001
15000.000000	61.299	-61.7260
15250.000000	57.401	-66.8209
15500.000000	53.998	-63.9739
15750.000000	51.218	-57.4886
16000.000000	48.983	-49.1292
16250.000000	47.362	-39.5798
16500.000000	46.249	-29.2141
16750.000000	45.449	-20.0123
17000.000000	44.715	-10.5959
17250.000000	44.206	-0.6036
17500.000000	43.879	9.4918
17750.000000	43.737	19.3374
18000.000000	43.806	28.5548
18250.000000	44.036	37.2975
18500.000000	44.434	44.9054
18750.000000	44.960	50.6837
19000.000000	45.531	53.8990
19250.000000	45.960	53.8644
19500.000000	45.918	50.3943
19750.000000	45.114	46.0047
