* Measurement data measured by REW V5.20.13
* Source: EXCL: Microphone (USB Sound Device        ), MICROPHONE (Master Volume), R, volume: 0.250
* Format: 256k Log Swept Sine, 1 sweep at -6.0 dBFS with no timing reference
* Dated: Sep 17, 2023 8:31:24 AM
* REW Settings:
*  C-weighting compensation: Off
*  Target level: 75.0 dB
* Note: ; 
* Measurement: n.Gold f.Green Foam R
* Smoothing: None
* Frequency Step: 1/48 octave
* Start Frequency: 1.000 Hz
*
* Freq(Hz)	SPL(dB)	Phase(degrees)
1.000000	70.396	-114.7988
1.015000	70.333	-116.8801
1.030000	70.272	-118.9649
1.044000	70.218	-120.9130
1.060000	70.160	-123.1414
1.075000	70.108	-125.2314
1.090000	70.061	-127.3214
1.106000	70.014	-129.5530
1.120000	69.975	-131.5245
1.138000	69.929	-134.0874
1.150000	69.900	-135.8116
1.172000	69.850	-139.0004
1.180000	69.833	-140.1676
1.206000	69.782	-143.9835
1.220000	69.757	-146.0491
1.241000	69.722	-149.1566
1.250000	69.708	-150.4901
1.265000	69.687	-152.7133
1.280000	69.667	-154.9350
1.315000	69.627	-160.0995
1.320000	69.622	-160.8337
1.340000	69.603	-163.7581
1.360000	69.587	-166.6583
1.380000	69.572	-169.5283
1.400000	69.560	-172.3624
1.430000	69.545	-176.5336
1.450000	69.537	-179.2526
1.475000	69.530	177.4224
1.500000	69.532	174.1354
1.525000	69.542	170.8774
1.550000	69.560	167.6513
1.575000	69.583	164.4601
1.600000	69.611	161.3067
1.625000	69.642	158.1942
1.650000	69.674	155.1254
1.675000	69.706	152.1034
1.700000	69.737	149.1310
1.725000	69.764	146.2113
1.750000	69.786	143.3473
1.775000	69.803	140.5417
1.800000	69.811	137.7977
1.825000	69.811	135.1182
1.850000	69.804	132.5009
1.875000	69.796	129.9352
1.900000	69.789	127.4213
1.925000	69.780	124.9598
1.950000	69.768	122.5512
1.975000	69.753	120.1963
2.000000	69.733	117.8957
2.030000	69.702	115.2074
2.060000	69.660	112.5992
2.090000	69.607	110.0723
2.120000	69.541	107.6277
2.140000	69.488	106.0442
2.180000	69.360	102.9896
2.200000	69.284	101.5187
2.240000	69.114	98.5869
2.270000	68.974	96.3935
2.300000	68.822	94.2358
2.330000	68.659	92.1419
2.360000	68.482	90.1398
2.400000	68.225	87.6611
2.430000	68.016	85.9817
2.470000	67.714	84.0348
2.500000	67.468	82.8302
2.540000	67.116	81.6181
2.580000	66.724	80.8932
2.620000	66.230	80.4998
2.650000	65.802	80.4066
2.690000	65.182	80.5699
2.720000	64.700	80.9210
2.760000	64.063	81.7126
2.800000	63.466	82.8952
2.850000	62.827	84.9590
2.900000	62.375	87.7161
2.950000	62.169	91.3145
3.000000	62.163	96.5131
3.040000	62.274	101.6119
3.070000	62.413	105.7858
3.110000	62.664	111.5746
3.150000	62.974	117.3420
3.200000	63.422	124.0600
3.250000	63.911	129.6807
3.300000	64.412	133.6164
3.350000	64.991	135.9642
3.400000	65.682	137.2204
3.450000	66.443	137.6084
3.500000	67.233	137.3514
3.550000	68.012	136.6729
3.600000	68.739	135.7961
3.650000	69.373	134.9445
3.700000	69.901	134.1088
3.750000	70.372	132.8931
3.820000	70.953	130.6957
3.870000	71.319	128.9012
3.950000	71.836	125.9032
4.000000	72.124	124.0983
4.060000	72.441	122.0961
4.120000	72.707	120.0431
4.180000	72.926	117.9463
4.250000	73.131	115.5178
4.310000	73.274	113.5141
4.370000	73.394	111.6401
4.440000	73.506	109.6385
4.500000	73.562	107.9930
4.550000	73.585	106.6865
4.620000	73.592	104.9934
4.680000	73.584	103.7028
4.750000	73.568	102.4288
4.820000	73.541	101.4273
4.870000	73.502	100.8587
4.940000	73.435	100.2508
5.000000	73.377	99.8896
5.080000	73.317	99.6129
5.150000	73.299	99.5518
5.220000	73.296	99.7743
5.300000	73.310	100.3001
5.380000	73.350	100.9518
5.450000	73.414	101.4911
5.520000	73.513	101.9053
5.600000	73.673	102.3977
5.700000	73.925	102.9922
5.800000	74.203	103.3760
5.900000	74.479	103.3640
6.000000	74.780	102.9864
6.080000	75.027	102.4854
6.150000	75.236	101.9361
6.220000	75.426	101.3112
6.300000	75.621	100.4677
6.400000	75.845	99.1883
6.500000	76.043	97.7953
6.600000	76.208	96.4343
6.700000	76.335	95.0683
6.800000	76.430	93.6768
6.900000	76.503	92.3615
7.000000	76.560	91.2105
7.100000	76.591	90.1809
7.200000	76.607	89.2672
7.300000	76.623	88.4858
7.400000	76.646	87.8651
7.500000	76.666	87.4069
7.620000	76.699	86.9768
7.750000	76.763	86.5590
7.880000	76.854	86.2609
8.000000	76.955	85.9809
8.120000	77.069	85.5805
8.250000	77.213	85.0625
8.380000	77.361	84.4411
8.500000	77.488	83.7411
8.620000	77.613	82.9196
8.750000	77.736	81.9648
8.850000	77.815	81.2170
9.000000	77.914	80.0267
9.120000	77.979	79.0917
9.250000	78.034	78.1536
9.380000	78.073	77.2623
9.500000	78.104	76.5056
9.620000	78.135	75.8351
9.750000	78.166	75.1912
9.880000	78.191	74.5973
10.000000	78.209	74.0917
10.150000	78.224	73.5141
10.300000	78.241	72.9226
10.440000	78.258	72.3592
10.600000	78.277	71.6920
10.750000	78.294	71.0199
10.900000	78.309	70.3180
11.060000	78.317	69.5656
11.200000	78.317	68.8973
11.380000	78.311	68.0663
11.500000	78.302	67.5397
11.720000	78.281	66.6227
11.800000	78.274	66.3088
12.060000	78.249	65.3434
12.200000	78.237	64.8351
12.410000	78.224	64.0843
12.500000	78.224	63.7554
12.650000	78.236	63.1992
12.800000	78.249	62.6389
13.150000	78.268	61.3242
13.200000	78.269	61.1422
13.400000	78.271	60.4299
13.600000	78.273	59.7518
13.800000	78.275	59.1162
14.000000	78.281	58.4960
14.300000	78.299	57.5753
14.500000	78.315	56.9326
14.750000	78.335	56.0932
15.000000	78.350	55.2177
15.250000	78.357	54.3440
15.500000	78.359	53.5078
15.750000	78.359	52.7240
16.000000	78.366	51.9987
16.250000	78.384	51.2969
16.500000	78.414	50.5982
16.750000	78.447	49.8719
17.000000	78.479	49.1199
17.250000	78.509	48.3557
17.500000	78.532	47.6013
17.750000	78.553	46.8839
18.000000	78.573	46.2051
18.250000	78.595	45.5653
18.500000	78.621	44.9422
18.750000	78.648	44.3245
19.000000	78.677	43.7025
19.250000	78.703	43.0786
19.500000	78.727	42.4623
19.750000	78.749	41.8604
20.000000	78.770	41.2785
20.299999	78.796	40.5977
20.600000	78.823	39.9250
20.900000	78.848	39.2509
21.200001	78.869	38.5760
21.400000	78.882	38.1330
21.799999	78.902	37.2721
22.000000	78.912	36.8543
22.400000	78.934	36.0292
22.700001	78.951	35.4006
23.000000	78.966	34.7538
23.299999	78.978	34.0986
23.600000	78.987	33.4495
24.000000	78.996	32.6103
24.299999	79.003	31.9980
24.700001	79.017	31.1829
25.000000	79.028	30.5591
25.400000	79.041	29.7125
25.799999	79.050	28.8732
26.200001	79.058	28.0608
26.500000	79.065	27.4662
26.900000	79.076	26.6794
27.200001	79.084	26.0875
27.600000	79.093	25.2997
28.000000	79.100	24.5256
28.500000	79.107	23.5817
29.000000	79.113	22.6490
29.500000	79.117	21.7241
30.000000	79.118	20.8201
30.400000	79.119	20.1099
30.700001	79.119	19.5767
31.100000	79.119	18.8588
31.500000	79.117	18.1390
32.000000	79.110	17.2562
32.500000	79.103	16.3956
33.000000	79.099	15.5354
33.500000	79.093	14.6664
34.000000	79.084	13.8074
34.500000	79.075	12.9722
35.000000	79.067	12.1517
35.500000	79.059	11.3361
36.000000	79.049	10.5321
36.500000	79.039	9.7454
37.000000	79.029	8.9691
37.500000	79.017	8.2000
38.200001	78.998	7.1500
38.700001	78.984	6.4188
39.500000	78.960	5.2577
40.000000	78.943	4.5453
40.599998	78.924	3.7127
41.200001	78.906	2.8900
41.799999	78.886	2.0742
42.500000	78.861	1.1492
43.099998	78.840	0.3766
43.700001	78.819	-0.3842
44.400002	78.793	-1.2496
45.000000	78.771	-1.9756
45.500000	78.751	-2.5707
46.200001	78.721	-3.3755
46.799999	78.697	-4.0426
47.500000	78.669	-4.8180
48.200001	78.638	-5.5781
48.700001	78.615	-6.1011
49.400002	78.583	-6.8168
50.000000	78.556	-7.4182
50.799999	78.519	-8.1909
51.500000	78.488	-8.8510
52.200001	78.456	-9.5008
53.000000	78.418	-10.2180
53.799999	78.379	-10.9112
54.500000	78.345	-11.5005
55.200001	78.311	-12.0773
56.000000	78.271	-12.7200
57.000000	78.222	-13.4979
58.000000	78.170	-14.2605
59.000000	78.117	-14.9719
60.000000	78.067	-15.6567
60.799999	78.026	-16.1974
61.500000	77.988	-16.6525
62.200001	77.951	-17.0873
63.000000	77.909	-17.5784
64.000000	77.853	-18.1873
65.000000	77.796	-18.7594
66.000000	77.740	-19.3224
67.000000	77.683	-19.8625
68.000000	77.627	-20.3859
69.000000	77.571	-20.8895
70.000000	77.514	-21.3802
71.000000	77.457	-21.8551
72.000000	77.399	-22.3104
73.000000	77.343	-22.7532
74.000000	77.286	-23.1880
75.000000	77.230	-23.6036
76.199997	77.161	-24.0851
77.500000	77.088	-24.5797
78.800003	77.013	-25.0557
80.000000	76.945	-25.4753
81.199997	76.878	-25.8918
82.500000	76.805	-26.3204
83.800003	76.733	-26.7317
85.000000	76.667	-27.0926
86.199997	76.602	-27.4509
87.500000	76.530	-27.8193
88.500000	76.476	-28.0902
90.000000	76.393	-28.4877
91.199997	76.328	-28.7834
92.500000	76.258	-29.0985
93.800003	76.189	-29.4039
95.000000	76.125	-29.6785
96.199997	76.062	-29.9366
97.500000	75.994	-30.2092
98.800003	75.927	-30.4658
100.000000	75.863	-30.7062
101.500000	75.786	-30.9628
103.000000	75.709	-31.2346
104.400002	75.639	-31.4744
106.000000	75.558	-31.7410
107.500000	75.485	-31.9675
109.000000	75.411	-32.1967
110.599998	75.333	-32.4140
112.000000	75.265	-32.5942
113.800003	75.179	-32.8263
115.000000	75.123	-32.9700
117.199997	75.018	-33.2333
118.000000	74.980	-33.3118
120.599998	74.861	-33.5763
122.000000	74.797	-33.7164
124.099998	74.702	-33.9003
125.000000	74.663	-33.9694
126.500000	74.602	-34.0939
128.000000	74.543	-34.2056
131.500000	74.404	-34.4620
132.000000	74.385	-34.4895
134.000000	74.308	-34.6166
136.000000	74.231	-34.7258
138.000000	74.157	-34.8177
140.000000	74.083	-34.9164
143.000000	73.974	-35.0458
145.000000	73.899	-35.1080
147.500000	73.811	-35.1791
150.000000	73.725	-35.2399
152.500000	73.638	-35.2957
155.000000	73.555	-35.3469
157.500000	73.473	-35.3757
160.000000	73.389	-35.4105
162.500000	73.295	-35.4209
165.000000	73.204	-35.4297
167.500000	73.113	-35.4273
170.000000	73.023	-35.4072
172.500000	72.937	-35.4043
175.000000	72.848	-35.3527
177.500000	72.762	-35.3336
180.000000	72.678	-35.2910
182.500000	72.598	-35.2446
185.000000	72.518	-35.1921
187.500000	72.437	-35.1247
190.000000	72.359	-35.0754
192.500000	72.277	-35.0001
195.000000	72.203	-34.9131
197.500000	72.129	-34.8314
200.000000	72.053	-34.7587
203.000000	71.972	-34.6667
206.000000	71.893	-34.5590
209.000000	71.816	-34.4297
212.000000	71.741	-34.2991
214.000000	71.690	-34.2193
218.000000	71.590	-34.0402
220.000000	71.543	-33.9286
224.000000	71.448	-33.7429
227.000000	71.379	-33.6094
230.000000	71.311	-33.4717
233.000000	71.246	-33.2982
236.000000	71.177	-33.1401
240.000000	71.094	-32.9159
243.000000	71.030	-32.7467
247.000000	70.947	-32.5184
250.000000	70.882	-32.3643
254.000000	70.810	-32.1334
258.000000	70.729	-31.8635
262.000000	70.661	-31.6296
265.000000	70.603	-31.4531
269.000000	70.532	-31.2015
272.000000	70.480	-31.0142
276.000000	70.414	-30.7476
280.000000	70.345	-30.4635
285.000000	70.262	-30.1405
290.000000	70.184	-29.8149
295.000000	70.107	-29.4596
300.000000	70.036	-29.1168
304.000000	69.978	-28.8445
307.000000	69.934	-28.6360
311.000000	69.880	-28.3453
315.000000	69.825	-28.0791
320.000000	69.757	-27.7196
325.000000	69.692	-27.3583
330.000000	69.628	-27.0239
335.000000	69.568	-26.6367
340.000000	69.513	-26.2864
345.000000	69.448	-25.9390
350.000000	69.396	-25.5563
355.000000	69.336	-25.2187
360.000000	69.280	-24.8368
365.000000	69.229	-24.4520
370.000000	69.183	-24.1117
375.000000	69.129	-23.7427
382.000000	69.065	-23.2295
387.000000	69.021	-22.8698
395.000000	68.945	-22.2729
400.000000	68.902	-21.9395
406.000000	68.857	-21.4630
412.000000	68.810	-21.0162
418.000000	68.760	-20.6102
425.000000	68.709	-20.0817
431.000000	68.670	-19.6814
437.000000	68.630	-19.2477
444.000000	68.590	-18.7216
450.000000	68.545	-18.2672
455.000000	68.525	-17.8959
462.000000	68.482	-17.4557
468.000000	68.448	-16.9960
475.000000	68.409	-16.5096
482.000000	68.380	-15.9944
487.000000	68.356	-15.6542
494.000000	68.332	-15.1636
500.000000	68.306	-14.7490
508.000000	68.286	-14.1753
515.000000	68.259	-13.7018
522.000000	68.250	-13.1498
530.000000	68.234	-12.7018
538.000000	68.181	-11.8279
545.000000	68.227	-10.9041
552.000000	68.305	-10.5837
560.000000	68.314	-10.6080
570.000000	68.200	-10.2681
580.000000	68.040	-9.3402
590.000000	67.892	-8.1469
600.000000	67.752	-7.1544
608.000000	67.661	-6.7535
615.000000	67.627	-6.6042
622.000000	67.649	-6.3409
630.000000	67.673	-5.7171
640.000000	67.663	-4.9717
650.000000	67.675	-4.3375
660.000000	67.663	-3.5192
670.000000	67.677	-2.8363
680.000000	67.667	-2.1526
690.000000	67.677	-1.4735
700.000000	67.673	-0.7744
710.000000	67.681	-0.0492
720.000000	67.683	0.6124
730.000000	67.682	1.3229
740.000000	67.691	2.0093
750.000000	67.701	2.7247
762.000000	67.712	3.5644
775.000000	67.739	4.4797
788.000000	67.752	5.3381
800.000000	67.770	6.1729
812.000000	67.790	6.9960
825.000000	67.807	7.8645
838.000000	67.832	8.7467
850.000000	67.855	9.5440
862.000000	67.889	10.3237
875.000000	67.920	11.2317
885.000000	67.955	11.7829
900.000000	67.998	12.7928
912.000000	68.045	13.4868
925.000000	68.095	14.3216
938.000000	68.146	15.0115
950.000000	68.202	15.7091
962.000000	68.258	16.3868
975.000000	68.322	17.0669
988.000000	68.384	17.7735
1000.000000	68.427	18.3777
1015.000000	68.549	19.0183
1030.000000	68.648	19.7259
1044.000000	68.740	20.2965
1060.000000	68.848	20.9078
1075.000000	68.952	21.4674
1090.000000	69.051	21.9557
1106.000000	69.157	22.4613
1120.000000	69.247	22.8439
1138.000000	69.360	23.4100
1150.000000	69.437	23.6888
1172.000000	69.581	24.2194
1180.000000	69.623	24.4134
1206.000000	69.782	24.9860
1220.000000	69.863	25.2571
1241.000000	69.984	25.6497
1250.000000	70.035	25.8011
1265.000000	70.089	26.0563
1280.000000	70.145	26.3014
1315.000000	70.265	26.8264
1320.000000	70.285	26.9069
1340.000000	70.351	27.1785
1360.000000	70.418	27.4401
1380.000000	70.473	27.7119
1400.000000	70.546	27.9189
1430.000000	70.634	28.1972
1450.000000	70.694	28.4000
1475.000000	70.763	28.5691
1500.000000	70.862	28.6566
1525.000000	70.898	28.9645
1550.000000	71.034	28.8521
1575.000000	71.090	28.4711
1600.000000	71.070	29.3898
1625.000000	70.635	29.8616
1650.000000	70.995	25.4630
1675.000000	71.364	30.7787
1700.000000	70.852	31.3185
1725.000000	71.177	29.1691
1750.000000	71.387	31.2553
1775.000000	71.392	31.1936
1800.000000	71.530	31.7127
1825.000000	71.628	31.9243
1850.000000	71.732	32.1992
1875.000000	71.835	32.4027
1900.000000	71.941	32.5955
1925.000000	72.038	32.7607
1950.000000	72.136	32.9110
1975.000000	72.240	33.0768
2000.000000	72.330	33.2071
2030.000000	72.431	33.2996
2060.000000	72.534	33.4113
2090.000000	72.638	33.4738
2120.000000	72.749	33.5923
2140.000000	72.811	33.5835
2180.000000	72.949	33.6199
2200.000000	73.015	33.6559
2240.000000	73.155	33.6310
2270.000000	73.252	33.5923
2300.000000	73.356	33.5255
2330.000000	73.454	33.4210
2360.000000	73.553	33.3108
2400.000000	73.684	33.0978
2430.000000	73.783	32.8638
2470.000000	73.901	32.5804
2500.000000	73.994	32.3568
2540.000000	74.110	31.9777
2580.000000	74.217	31.5235
2620.000000	74.327	31.0648
2650.000000	74.397	30.6788
2690.000000	74.487	30.0886
2720.000000	74.545	29.6485
2760.000000	74.610	29.0327
2800.000000	74.665	28.4217
2850.000000	74.710	27.7277
2900.000000	74.730	27.2054
2950.000000	74.738	27.0230
3000.000000	74.779	27.1585
3040.000000	74.788	26.9417
3070.000000	74.913	27.3212
3110.000000	75.135	27.9767
3150.000000	75.070	31.5297
3200.000000	75.477	25.1046
3250.000000	74.761	25.5732
3300.000000	75.527	23.9351
3350.000000	76.224	26.1759
3400.000000	76.845	23.6782
3450.000000	77.297	19.8204
3500.000000	77.493	15.7654
3550.000000	77.530	11.8220
3600.000000	77.445	7.9282
3650.000000	77.289	4.2002
3700.000000	77.071	0.8054
3750.000000	76.796	-2.2164
3820.000000	76.353	-5.8064
3870.000000	76.010	-7.9125
3950.000000	75.425	-10.4814
4000.000000	75.042	-11.6761
4060.000000	74.614	-12.5807
4120.000000	74.192	-13.1948
4180.000000	73.812	-13.5026
4250.000000	73.406	-13.6454
4310.000000	73.101	-13.6089
4370.000000	72.849	-13.6230
4440.000000	72.587	-13.7007
4500.000000	72.408	-14.0475
4550.000000	72.281	-14.5289
4620.000000	72.132	-15.6482
4680.000000	71.994	-17.1289
4750.000000	71.788	-19.5781
4820.000000	71.471	-22.7484
4870.000000	71.130	-25.1882
4940.000000	70.435	-28.2830
5000.000000	69.664	-30.0901
5080.000000	68.509	-30.5267
5150.000000	67.505	-29.0638
5220.000000	66.566	-26.4631
5300.000000	65.637	-22.3124
5380.000000	64.852	-17.5834
5450.000000	64.290	-13.2540
5520.000000	63.826	-8.7534
5600.000000	63.381	-3.7590
5700.000000	63.010	2.5337
5800.000000	62.742	8.1700
5900.000000	62.542	13.8724
6000.000000	62.419	18.9629
6080.000000	62.418	23.2408
6150.000000	62.448	26.7953
6220.000000	62.489	30.1980
6300.000000	62.624	33.7543
6400.000000	62.868	38.3252
6500.000000	63.208	42.4282
6600.000000	63.593	46.3290
6700.000000	64.018	49.9766
6800.000000	64.522	53.4030
6900.000000	65.062	56.4059
7000.000000	65.699	59.2387
7100.000000	66.379	61.7555
7200.000000	67.155	63.7442
7300.000000	67.995	65.0777
7400.000000	68.904	65.7120
7500.000000	69.866	65.5777
7620.000000	71.079	64.0979
7750.000000	72.450	60.5837
7880.000000	73.766	54.6581
8000.000000	74.822	47.0969
8120.000000	75.514	37.8225
8250.000000	75.932	26.6796
8380.000000	76.036	15.3909
8500.000000	75.930	5.2894
8620.000000	75.704	-4.5183
8750.000000	75.318	-15.1719
8850.000000	74.914	-23.3542
9000.000000	74.069	-35.5599
9120.000000	73.157	-44.9521
9250.000000	71.956	-54.0380
9380.000000	70.620	-61.5245
9500.000000	69.289	-67.0499
9620.000000	67.958	-71.3574
9750.000000	66.576	-74.9382
9880.000000	65.273	-77.8522
10000.000000	64.108	-79.8340
10150.000000	62.840	-82.0020
10300.000000	61.668	-83.9731
10440.000000	60.656	-86.0187
10600.000000	59.529	-88.4298
10750.000000	58.448	-91.8046
10900.000000	57.224	-95.8100
11060.000000	55.990	-100.6116
11200.000000	54.582	-106.3777
11380.000000	52.294	-116.1265
11500.000000	50.303	-124.5708
11720.000000	44.483	-148.6726
11800.000000	41.681	-165.5031
12060.000000	40.256	83.8726
12200.000000	44.641	61.0214
12410.000000	47.790	44.1973
12500.000000	48.983	39.4589
12650.000000	50.058	35.9603
12800.000000	50.845	31.1331
13150.000000	52.268	26.1158
13200.000000	52.507	24.8907
13400.000000	53.039	21.0419
13600.000000	52.331	19.7998
13800.000000	53.779	26.8590
14000.000000	54.706	24.3497
14300.000000	56.151	20.3547
14500.000000	56.946	14.6986
14750.000000	57.719	3.8600
15000.000000	57.458	-9.5761
15250.000000	56.196	-20.9295
15500.000000	54.399	-25.3353
15750.000000	52.743	-26.2308
16000.000000	51.309	-23.8763
16250.000000	50.624	-19.0735
16500.000000	50.551	-13.3201
16750.000000	50.270	-9.3508
17000.000000	50.464	-3.4320
17250.000000	50.763	-0.5753
17500.000000	51.716	0.5916
17750.000000	52.064	-4.9119
18000.000000	51.653	-13.0121
18250.000000	50.441	-15.8858
18500.000000	49.306	-16.6299
18750.000000	48.024	-20.4871
19000.000000	45.710	-22.6166
19250.000000	43.887	-24.7297
19500.000000	41.603	-30.8344
19750.000000	39.125	-52.1146
