* Measurement data measured by REW V5.20.13
* Source: EXCL: Microphone (USB Sound Device        ), MICROPHONE (Master Volume), L, volume: 0.250
* Format: 256k Log Swept Sine, 1 sweep at -6.0 dBFS with no timing reference
* Dated: Sep 14, 2023 5:50:26 PM
* REW Settings:
*  C-weighting compensation: Off
*  Target level: 75.0 dB
* Note: ; 
* Measurement: n.Gray f.Green Foam L
* Smoothing: None
* Frequency Step: 1/48 octave
* Start Frequency: 1.000 Hz
*
* Freq(Hz)	SPL(dB)	Phase(degrees)
1.000000	54.026	142.5038
1.015000	53.933	142.0525
1.030000	53.838	141.6125
1.044000	53.747	141.2125
1.060000	53.641	140.7690
1.075000	53.540	140.3670
1.090000	53.436	139.9792
1.106000	53.323	139.5791
1.120000	53.221	139.2247
1.138000	53.088	138.7616
1.150000	52.998	138.4498
1.172000	52.828	137.8766
1.180000	52.766	137.6688
1.206000	52.558	137.0012
1.220000	52.443	136.6497
1.241000	52.268	136.1382
1.250000	52.192	135.9261
1.265000	52.064	135.5839
1.280000	51.934	135.2578
1.315000	51.624	134.5728
1.320000	51.579	134.4848
1.340000	51.398	134.1612
1.360000	51.213	133.8867
1.380000	51.026	133.6670
1.400000	50.837	133.5073
1.430000	50.549	133.3926
1.450000	50.354	133.4072
1.475000	50.106	133.5311
1.500000	49.838	133.7229
1.525000	49.552	133.9745
1.550000	49.251	134.2910
1.575000	48.939	134.6779
1.600000	48.622	135.1402
1.625000	48.302	135.6834
1.650000	47.985	136.3127
1.675000	47.674	137.0334
1.700000	47.374	137.8507
1.725000	47.089	138.7700
1.750000	46.824	139.7965
1.775000	46.582	140.9355
1.800000	46.368	142.1923
1.825000	46.185	143.5721
1.850000	46.033	145.1271
1.875000	45.896	146.9499
1.900000	45.775	149.0049
1.925000	45.671	151.2508
1.950000	45.582	153.6469
1.975000	45.510	156.1518
2.000000	45.455	158.7247
2.030000	45.411	161.8441
2.060000	45.392	164.9312
2.090000	45.399	167.9153
2.120000	45.433	170.7254
2.140000	45.469	172.4671
2.180000	45.579	175.5398
2.200000	45.652	176.8299
2.240000	45.861	179.1109
2.270000	46.072	-179.3610
2.300000	46.322	-177.9823
2.330000	46.602	-176.7468
2.360000	46.906	-175.6480
2.400000	47.333	-174.3848
2.430000	47.661	-173.5804
2.470000	48.094	-172.6866
2.500000	48.405	-172.1420
2.540000	48.788	-171.5715
2.580000	49.123	-171.1812
2.620000	49.442	-171.0856
2.650000	49.677	-171.2008
2.690000	49.983	-171.5646
2.720000	50.207	-171.9686
2.760000	50.497	-172.6432
2.800000	50.775	-173.4285
2.850000	51.107	-174.4920
2.900000	51.418	-175.5580
2.950000	51.707	-176.5585
3.000000	51.971	-177.6606
3.040000	52.167	-178.6304
3.070000	52.305	-179.3970
3.110000	52.480	179.5431
3.150000	52.645	178.4569
3.200000	52.839	177.0902
3.250000	53.023	175.7469
3.300000	53.199	174.4625
3.350000	53.363	173.1961
3.400000	53.511	171.9130
3.450000	53.646	170.6290
3.500000	53.771	169.3597
3.550000	53.889	168.1209
3.600000	54.002	166.9284
3.650000	54.114	165.7977
3.700000	54.223	164.7311
3.750000	54.323	163.7047
3.820000	54.452	162.3379
3.870000	54.540	161.4150
3.950000	54.681	160.0377
4.000000	54.774	159.2427
4.060000	54.893	158.3631
4.120000	55.011	157.5774
4.180000	55.130	156.8713
4.250000	55.274	156.1244
4.310000	55.404	155.5298
4.370000	55.545	154.9584
4.440000	55.723	154.3207
4.500000	55.886	153.8380
4.550000	56.028	153.4678
4.620000	56.236	152.9720
4.680000	56.421	152.5435
4.750000	56.644	152.0077
4.820000	56.877	151.4314
4.870000	57.051	151.0166
4.940000	57.302	150.4233
5.000000	57.521	149.8950
5.080000	57.814	149.1487
5.150000	58.066	148.4441
5.220000	58.320	147.6884
5.300000	58.612	146.7754
5.380000	58.902	145.8254
5.450000	59.149	144.9767
5.520000	59.388	144.1197
5.600000	59.654	143.1035
5.700000	59.977	141.7979
5.800000	60.286	140.4981
5.900000	60.581	139.2440
6.000000	60.860	138.0055
6.080000	61.073	137.0343
6.150000	61.254	136.2116
6.220000	61.432	135.4248
6.300000	61.629	134.5709
6.400000	61.864	133.5577
6.500000	62.093	132.6033
6.600000	62.320	131.7066
6.700000	62.544	130.8792
6.800000	62.764	130.1131
6.900000	62.982	129.3842
7.000000	63.202	128.6740
7.100000	63.423	128.0020
7.200000	63.643	127.3539
7.300000	63.863	126.7048
7.400000	64.081	126.0431
7.500000	64.299	125.3827
7.620000	64.557	124.5817
7.750000	64.829	123.6882
7.880000	65.094	122.7679
8.000000	65.331	121.9076
8.120000	65.558	121.0451
8.250000	65.793	120.0997
8.380000	66.018	119.1619
8.500000	66.217	118.3177
8.620000	66.406	117.4866
8.750000	66.603	116.6083
8.850000	66.751	115.9536
9.000000	66.965	115.0039
9.120000	67.131	114.2636
9.250000	67.308	113.4780
9.380000	67.481	112.7121
9.500000	67.638	112.0091
9.620000	67.795	111.3040
9.750000	67.963	110.5426
9.880000	68.119	109.7754
10.000000	68.247	109.0577
10.150000	68.390	108.1523
10.300000	68.522	107.2425
10.440000	68.634	106.3864
10.600000	68.753	105.4106
10.750000	68.860	104.5055
10.900000	68.962	103.6084
11.060000	69.066	102.6688
11.200000	69.153	101.8615
11.380000	69.262	100.8387
11.500000	69.333	100.1674
11.720000	69.459	98.9490
11.800000	69.505	98.5071
12.060000	69.649	97.0760
12.200000	69.722	96.3026
12.410000	69.831	95.1411
12.500000	69.882	94.6443
12.650000	69.974	93.8156
12.800000	70.067	92.9924
13.150000	70.271	91.1059
13.200000	70.299	90.8418
13.400000	70.408	89.7994
13.600000	70.512	88.7791
13.800000	70.614	87.7818
14.000000	70.712	86.8020
14.300000	70.853	85.3620
14.500000	70.944	84.4178
14.750000	71.051	83.2572
15.000000	71.152	82.1195
15.250000	71.246	81.0095
15.500000	71.335	79.9282
15.750000	71.418	78.8751
16.000000	71.499	77.8470
16.250000	71.580	76.8388
16.500000	71.660	75.8482
16.750000	71.734	74.8730
17.000000	71.802	73.9142
17.250000	71.865	72.9726
17.500000	71.923	72.0492
17.750000	71.977	71.1425
18.000000	72.026	70.2504
18.250000	72.073	69.3704
18.500000	72.116	68.4995
18.750000	72.155	67.6377
19.000000	72.191	66.7848
19.250000	72.225	65.9421
19.500000	72.255	65.1096
19.750000	72.284	64.2868
20.000000	72.312	63.4717
20.299999	72.344	62.5014
20.600000	72.375	61.5394
20.900000	72.402	60.5882
21.200001	72.427	59.6536
21.400000	72.442	59.0434
21.799999	72.471	57.8553
22.000000	72.485	57.2762
22.400000	72.514	56.1405
22.700001	72.536	55.3005
23.000000	72.557	54.4664
23.299999	72.576	53.6405
23.600000	72.593	52.8281
24.000000	72.612	51.7741
24.299999	72.623	51.0092
24.700001	72.637	50.0223
25.000000	72.646	49.3032
25.400000	72.658	48.3682
25.799999	72.668	47.4574
26.200001	72.677	46.5671
26.500000	72.684	45.9087
26.900000	72.692	45.0367
27.200001	72.698	44.3838
27.600000	72.703	43.5152
28.000000	72.705	42.6557
28.500000	72.706	41.6070
29.000000	72.706	40.5892
29.500000	72.708	39.5890
30.000000	72.711	38.5938
30.400000	72.712	37.8052
30.700001	72.711	37.2245
31.100000	72.710	36.4714
31.500000	72.710	35.7422
32.000000	72.711	34.8529
32.500000	72.712	33.9761
33.000000	72.711	33.1154
33.500000	72.708	32.2836
34.000000	72.704	31.4821
34.500000	72.702	30.6977
35.000000	72.699	29.9214
35.500000	72.694	29.1563
36.000000	72.688	28.4072
36.500000	72.681	27.6710
37.000000	72.675	26.9456
37.500000	72.667	26.2367
38.200001	72.659	25.2729
38.700001	72.657	24.5832
39.500000	72.650	23.4508
40.000000	72.640	22.7556
40.599998	72.627	21.9715
41.200001	72.615	21.2374
41.799999	72.607	20.5286
42.500000	72.599	19.7171
43.099998	72.595	19.0248
43.700001	72.590	18.3241
44.400002	72.578	17.5085
45.000000	72.564	16.8384
45.500000	72.552	16.3084
46.200001	72.536	15.5967
46.799999	72.525	14.9984
47.500000	72.513	14.3000
48.200001	72.498	13.6015
48.700001	72.484	13.1150
49.400002	72.465	12.4658
50.000000	72.450	11.9226
50.799999	72.430	11.1869
51.500000	72.408	10.5639
52.200001	72.387	9.9829
53.000000	72.370	9.3097
53.799999	72.348	8.6112
54.500000	72.325	8.0355
55.200001	72.305	7.4915
56.000000	72.285	6.8726
57.000000	72.258	6.1137
58.000000	72.229	5.3687
59.000000	72.197	4.6472
60.000000	72.161	3.9646
60.799999	72.133	3.4485
61.500000	72.110	3.0112
62.200001	72.088	2.5696
63.000000	72.061	2.0602
64.000000	72.022	1.4435
65.000000	71.982	0.8633
66.000000	71.946	0.3017
67.000000	71.908	-0.2546
68.000000	71.871	-0.7864
69.000000	71.835	-1.3151
70.000000	71.796	-1.8436
71.000000	71.755	-2.3412
72.000000	71.718	-2.8250
73.000000	71.678	-3.3279
74.000000	71.632	-3.7888
75.000000	71.593	-4.1981
76.199997	71.551	-4.7438
77.500000	71.497	-5.3081
78.800003	71.444	-5.8100
80.000000	71.404	-6.2479
81.199997	71.362	-6.7478
82.500000	71.307	-7.2241
83.800003	71.256	-7.6554
85.000000	71.211	-8.0681
86.199997	71.160	-8.4933
87.500000	71.104	-8.8997
88.500000	71.063	-9.2163
90.000000	71.002	-9.6487
91.199997	70.963	-10.0120
92.500000	70.909	-10.4107
93.800003	70.860	-10.7382
95.000000	70.814	-11.0394
96.199997	70.769	-11.3222
97.500000	70.720	-11.6321
98.800003	70.670	-11.9522
100.000000	70.622	-12.2410
101.500000	70.566	-12.5851
103.000000	70.505	-12.9135
104.400002	70.454	-13.2110
106.000000	70.392	-13.4944
107.500000	70.340	-13.7940
109.000000	70.288	-14.0827
110.599998	70.229	-14.3822
112.000000	70.177	-14.6089
113.800003	70.112	-14.8552
115.000000	70.068	-15.0147
117.199997	69.990	-15.3466
118.000000	69.960	-15.4720
120.599998	69.864	-15.8324
122.000000	69.823	-16.0260
124.099998	69.744	-16.2926
125.000000	69.708	-16.3808
126.500000	69.661	-16.4648
128.000000	69.618	-16.6220
131.500000	69.518	-16.9763
132.000000	69.504	-17.0244
134.000000	69.445	-17.1922
136.000000	69.388	-17.3500
138.000000	69.328	-17.5052
140.000000	69.267	-17.7053
143.000000	69.188	-17.8804
145.000000	69.136	-18.0007
147.500000	69.067	-18.1164
150.000000	68.996	-18.2293
152.500000	68.931	-18.3261
155.000000	68.866	-18.3900
157.500000	68.799	-18.4160
160.000000	68.727	-18.4968
162.500000	68.651	-18.5975
165.000000	68.587	-18.7058
167.500000	68.511	-18.7148
170.000000	68.437	-18.6912
172.500000	68.368	-18.7118
175.000000	68.295	-18.7838
177.500000	68.231	-18.8097
180.000000	68.162	-18.8192
182.500000	68.090	-18.8031
185.000000	68.021	-18.7527
187.500000	67.955	-18.6964
190.000000	67.894	-18.6719
192.500000	67.830	-18.6659
195.000000	67.764	-18.6350
197.500000	67.693	-18.5932
200.000000	67.628	-18.5076
203.000000	67.561	-18.3736
206.000000	67.495	-18.2535
209.000000	67.435	-18.1615
212.000000	67.377	-18.0991
214.000000	67.339	-18.0452
218.000000	67.259	-17.9223
220.000000	67.214	-17.8184
224.000000	67.134	-17.6318
227.000000	67.076	-17.5420
230.000000	67.028	-17.4503
233.000000	66.977	-17.3086
236.000000	66.923	-17.0873
240.000000	66.838	-16.8473
243.000000	66.779	-16.6868
247.000000	66.709	-16.4788
250.000000	66.666	-16.3090
254.000000	66.611	-16.0929
258.000000	66.548	-15.8453
262.000000	66.479	-15.6086
265.000000	66.438	-15.4352
269.000000	66.387	-15.1591
272.000000	66.344	-14.9947
276.000000	66.291	-14.7454
280.000000	66.243	-14.4553
285.000000	66.168	-14.1120
290.000000	66.095	-13.7702
295.000000	66.037	-13.3996
300.000000	65.985	-13.0234
304.000000	65.933	-12.7206
307.000000	65.897	-12.4834
311.000000	65.853	-12.2344
315.000000	65.808	-11.9414
320.000000	65.762	-11.5809
325.000000	65.714	-11.1774
330.000000	65.665	-10.7601
335.000000	65.621	-10.3959
340.000000	65.569	-10.0409
345.000000	65.516	-9.5980
350.000000	65.470	-9.2090
355.000000	65.434	-8.8257
360.000000	65.394	-8.3761
365.000000	65.347	-7.9959
370.000000	65.307	-7.5690
375.000000	65.270	-7.1708
382.000000	65.223	-6.6260
387.000000	65.198	-6.2119
395.000000	65.144	-5.5307
400.000000	65.107	-5.1334
406.000000	65.082	-4.6669
412.000000	65.048	-4.1664
418.000000	65.012	-3.6502
425.000000	64.969	-3.0469
431.000000	64.940	-2.5432
437.000000	64.912	-2.0143
444.000000	64.885	-1.4697
450.000000	64.853	-0.9981
455.000000	64.832	-0.5644
462.000000	64.812	0.0037
468.000000	64.790	0.5392
475.000000	64.774	1.1091
482.000000	64.752	1.6932
487.000000	64.733	2.0478
494.000000	64.712	2.6224
500.000000	64.699	3.1483
508.000000	64.684	3.8479
515.000000	64.666	4.4349
522.000000	64.647	4.9778
530.000000	64.633	5.6210
538.000000	64.621	6.3416
545.000000	64.616	6.9381
552.000000	64.606	7.5518
560.000000	64.600	8.2029
570.000000	64.592	8.9490
580.000000	64.583	9.8144
590.000000	64.585	10.7147
600.000000	64.583	11.5413
608.000000	64.588	12.1817
615.000000	64.584	12.7353
622.000000	64.590	13.3409
630.000000	64.595	13.9968
640.000000	64.605	14.8817
650.000000	64.614	15.6949
660.000000	64.632	16.5344
670.000000	64.650	17.2999
680.000000	64.664	18.1589
690.000000	64.682	19.0359
700.000000	64.707	19.8743
710.000000	64.733	20.6947
720.000000	64.742	21.5404
730.000000	64.783	22.3214
740.000000	64.815	23.2056
750.000000	64.845	24.0401
762.000000	64.878	25.0238
775.000000	64.923	26.0942
788.000000	64.976	27.2712
800.000000	65.019	28.3920
812.000000	65.064	29.4641
825.000000	65.126	30.6734
838.000000	65.206	31.9671
850.000000	65.309	32.9877
862.000000	65.409	33.8567
875.000000	65.510	34.6242
885.000000	65.579	35.2806
900.000000	65.677	36.2946
912.000000	65.762	37.1948
925.000000	65.857	38.0516
938.000000	65.951	38.8822
950.000000	66.046	39.6513
962.000000	66.147	40.4132
975.000000	66.248	41.2307
988.000000	66.349	41.9478
1000.000000	66.437	42.6709
1015.000000	66.595	43.3560
1030.000000	66.727	44.1587
1044.000000	66.865	44.8282
1060.000000	67.020	45.5281
1075.000000	67.159	46.1653
1090.000000	67.305	46.8116
1106.000000	67.459	47.4679
1120.000000	67.589	47.9906
1138.000000	67.746	48.6169
1150.000000	67.862	49.0417
1172.000000	68.062	49.7963
1180.000000	68.130	50.0656
1206.000000	68.366	50.8528
1220.000000	68.488	51.2768
1241.000000	68.664	51.8999
1250.000000	68.735	52.1778
1265.000000	68.837	52.6056
1280.000000	68.937	53.0494
1315.000000	69.176	53.9761
1320.000000	69.208	54.1428
1340.000000	69.343	54.7148
1360.000000	69.481	55.2559
1380.000000	69.622	55.7536
1400.000000	69.767	56.1841
1430.000000	69.980	56.9845
1450.000000	70.121	57.4041
1475.000000	70.307	57.9175
1500.000000	70.495	58.3945
1525.000000	70.682	58.8501
1550.000000	70.877	59.2670
1575.000000	71.069	59.5820
1600.000000	71.275	59.8625
1625.000000	71.509	60.0708
1650.000000	71.747	60.2380
1675.000000	71.990	60.3162
1700.000000	72.231	60.2852
1725.000000	72.470	60.1913
1750.000000	72.708	59.9591
1775.000000	72.931	59.7184
1800.000000	73.158	59.2618
1825.000000	73.375	58.7458
1850.000000	73.591	58.1170
1875.000000	73.792	57.3947
1900.000000	73.983	56.5372
1925.000000	74.182	55.5648
1950.000000	74.365	54.4214
1975.000000	74.554	53.2080
2000.000000	74.724	51.8842
2030.000000	74.921	50.0815
2060.000000	75.092	48.1738
2090.000000	75.241	46.1390
2120.000000	75.366	44.0335
2140.000000	75.434	42.5823
2180.000000	75.537	39.6381
2200.000000	75.571	38.1682
2240.000000	75.614	35.2212
2270.000000	75.619	33.0956
2300.000000	75.600	31.0256
2330.000000	75.568	29.0916
2360.000000	75.522	27.2652
2400.000000	75.437	25.0549
2430.000000	75.361	23.5582
2470.000000	75.249	21.7753
2500.000000	75.160	20.6186
2540.000000	75.040	19.2698
2580.000000	74.920	18.2125
2620.000000	74.804	17.3412
2650.000000	74.713	16.7854
2690.000000	74.593	16.2213
2720.000000	74.509	15.8524
2760.000000	74.400	15.5425
2800.000000	74.293	15.3556
2850.000000	74.172	15.2245
2900.000000	74.056	15.3026
2950.000000	73.945	15.5824
3000.000000	73.851	16.1371
3040.000000	73.780	16.8058
3070.000000	73.738	17.4777
3110.000000	73.713	18.6489
3150.000000	73.740	20.0857
3200.000000	73.865	22.1325
3250.000000	74.128	24.1480
3300.000000	74.523	25.6667
3350.000000	74.997	26.1805
3400.000000	75.489	25.4654
3450.000000	75.933	23.5231
3500.000000	76.304	20.5750
3550.000000	76.585	16.8588
3600.000000	76.776	12.5779
3650.000000	76.881	7.7544
3700.000000	76.910	2.4563
3750.000000	76.860	-3.1099
3820.000000	76.686	-10.7514
3870.000000	76.484	-15.6647
3950.000000	76.035	-22.1154
4000.000000	75.671	-25.2867
4060.000000	75.162	-28.2686
4120.000000	74.599	-30.5163
4180.000000	74.005	-32.0452
4250.000000	73.296	-33.0293
4310.000000	72.707	-33.2998
4370.000000	72.150	-33.1349
4440.000000	71.564	-32.6298
4500.000000	71.121	-32.1047
4550.000000	70.798	-31.7443
4620.000000	70.395	-31.3821
4680.000000	70.090	-31.2297
4750.000000	69.787	-31.5054
4820.000000	69.479	-32.5247
4870.000000	69.217	-33.7270
4940.000000	68.683	-35.7555
5000.000000	68.023	-37.2140
5080.000000	66.912	-37.7841
5150.000000	65.870	-36.3709
5220.000000	64.900	-33.4301
5300.000000	63.974	-29.1956
5380.000000	63.235	-24.4544
5450.000000	62.704	-20.2137
5520.000000	62.270	-16.0603
5600.000000	61.851	-11.3758
5700.000000	61.439	-5.7532
5800.000000	61.088	-0.1824
5900.000000	60.795	5.4795
6000.000000	60.597	11.8285
6080.000000	60.728	17.4261
6150.000000	60.978	20.0906
6220.000000	60.993	22.4531
6300.000000	61.017	25.8860
6400.000000	61.172	30.5473
6500.000000	61.433	35.1174
6600.000000	61.814	39.5903
6700.000000	62.267	43.7185
6800.000000	62.790	47.8536
6900.000000	63.398	51.7993
7000.000000	64.130	55.3924
7100.000000	64.980	58.6662
7200.000000	65.967	61.1440
7300.000000	67.106	62.8447
7400.000000	68.385	63.4515
7500.000000	69.800	62.5146
7620.000000	71.606	58.3960
7750.000000	73.439	48.9160
7880.000000	74.647	33.6518
8000.000000	74.831	17.6181
8120.000000	74.209	4.1372
8250.000000	73.251	-5.6388
8380.000000	72.386	-11.8336
8500.000000	71.776	-16.3053
8620.000000	71.367	-20.6189
8750.000000	71.103	-26.3082
8850.000000	70.915	-31.9816
9000.000000	70.428	-42.9609
9120.000000	69.645	-52.8808
9250.000000	68.328	-63.2636
9380.000000	66.654	-71.3500
9500.000000	64.986	-76.6379
9620.000000	63.295	-79.9663
9750.000000	61.590	-82.1314
9880.000000	59.949	-82.9342
10000.000000	58.564	-83.0584
10150.000000	57.133	-83.1302
10300.000000	55.798	-82.9278
10440.000000	54.612	-83.4760
10600.000000	53.307	-84.6587
10750.000000	52.029	-87.1061
10900.000000	50.530	-90.7979
11060.000000	48.691	-96.6638
11200.000000	46.742	-103.8816
11380.000000	43.350	-118.8082
11500.000000	39.992	-134.8196
11720.000000	36.961	155.6148
11800.000000	38.264	128.1303
12060.000000	43.779	89.3647
12200.000000	45.361	81.0504
12410.000000	47.421	72.3796
12500.000000	48.235	71.0596
12650.000000	49.485	68.6843
12800.000000	50.905	65.8905
13150.000000	54.783	50.1556
13200.000000	55.231	45.6018
13400.000000	55.805	22.3881
13600.000000	54.266	4.0009
13800.000000	52.155	-3.9745
14000.000000	50.384	-4.9573
14300.000000	48.398	-0.6685
14500.000000	47.615	4.1085
14750.000000	47.043	11.6443
15000.000000	46.916	19.9671
15250.000000	47.165	28.8232
15500.000000	48.161	37.4791
15750.000000	49.797	40.9636
16000.000000	52.046	41.2621
16250.000000	54.481	33.8283
16500.000000	56.084	18.4758
16750.000000	55.992	1.3860
17000.000000	54.729	-7.2208
17250.000000	53.598	-8.8011
17500.000000	53.019	-6.4340
17750.000000	52.871	-3.4469
18000.000000	53.013	-0.9704
18250.000000	53.625	-0.7887
18500.000000	54.156	-3.0404
18750.000000	54.277	-7.9844
19000.000000	54.085	-12.5521
19250.000000	53.370	-16.9144
19500.000000	52.819	-20.2844
19750.000000	52.550	-24.0123
