* Measurement data measured by REW V5.20.13
* Source: C:\Users\marcu\OneDrive\Desktop\Fix\ n.Silver f.Purple Foam R.txt
* Format: Comma/Tab/Space delimited data
* Dated: Jul 26, 2023 6:09:33 PM
* REW Settings:
*  C-weighting compensation: Off
*  Target level: 75.0 dB
* Note: ; Measurement imported from C:\Users\marcu\OneDrive\Desktop\Fix\ n.Silver f.Purple Foam R.txt Format: Comma/Tab/Space delimited data 54613 values loaded, 0 Hz to 20,000 Hz 
* Measurement:  n.Silver f.Purple Foam R
* Smoothing: None
* Frequency Step: 1/48 octave
* Start Frequency: 1.000 Hz
*
* Freq(Hz)	SPL(dB)	Phase(degrees)
1.000000	58.241	-59.4025
1.015000	58.072	-60.2966
1.030000	57.897	-61.1914
1.044000	57.728	-62.0273
1.060000	57.527	-62.9837
1.075000	57.333	-63.8812
1.090000	57.131	-64.7798
1.106000	56.911	-65.7320
1.120000	56.733	-66.5189
1.138000	56.527	-67.4649
1.150000	56.401	-68.0607
1.172000	56.186	-69.0954
1.180000	56.112	-69.4571
1.206000	55.875	-70.5982
1.220000	55.747	-71.2012
1.241000	55.545	-72.1080
1.250000	55.453	-72.5022
1.265000	55.290	-73.1727
1.280000	55.112	-73.8669
1.315000	54.617	-75.6232
1.320000	54.536	-75.8940
1.340000	54.178	-77.0382
1.360000	53.763	-78.2944
1.380000	53.282	-79.6811
1.400000	52.728	-81.2170
1.430000	51.742	-83.8409
1.450000	50.969	-85.8309
1.475000	49.840	-88.7187
1.500000	48.376	-92.8409
1.525000	46.596	-98.1374
1.550000	44.565	-104.3220
1.575000	42.348	-111.1084
1.600000	40.008	-118.2101
1.625000	37.611	-125.3408
1.650000	35.221	-132.2143
1.675000	32.903	-138.5442
1.700000	30.720	-144.0441
1.725000	28.738	-148.4277
1.750000	27.021	-151.4087
1.775000	25.633	-152.7007
1.800000	24.640	-152.0174
1.825000	24.105	-149.0724
1.850000	24.084	-143.3881
1.875000	24.551	-134.6076
1.900000	25.442	-123.1656
1.925000	26.694	-109.5235
1.950000	28.241	-94.1430
1.975000	30.020	-77.4856
2.000000	31.967	-60.0129
2.030000	34.434	-38.6192
2.060000	36.939	-17.5136
2.090000	39.370	2.5063
2.120000	41.618	20.6431
2.140000	42.959	31.2944
2.180000	45.117	48.0771
2.200000	45.869	53.7434
2.240000	46.972	60.7424
2.270000	47.570	63.0706
2.300000	48.000	63.3040
2.330000	48.284	61.8106
2.360000	48.448	58.9584
2.400000	48.521	53.6779
2.430000	48.497	49.0863
2.470000	48.407	42.8224
2.500000	48.327	38.4950
2.540000	48.250	33.9191
2.580000	48.245	31.2660
2.620000	48.232	29.0247
2.650000	48.196	27.3359
2.690000	48.106	25.0856
2.720000	48.002	23.4073
2.760000	47.808	21.1942
2.800000	47.543	19.0230
2.850000	47.099	16.3908
2.900000	46.512	13.8769
2.950000	45.747	11.2762
3.000000	44.648	6.8967
3.040000	43.578	2.5084
3.070000	42.705	-0.8957
3.110000	41.501	-5.0922
3.150000	40.310	-8.3343
3.200000	38.937	-10.1089
3.250000	37.812	-8.2324
3.300000	37.061	-1.4948
3.350000	36.630	12.3006
3.400000	36.409	32.4617
3.450000	36.377	56.5294
3.500000	36.513	82.0450
3.550000	36.795	106.5494
3.600000	37.203	127.5839
3.650000	37.715	142.6895
3.700000	38.387	150.5439
3.750000	39.342	153.2874
3.820000	40.987	150.9956
3.870000	42.249	146.6347
3.950000	44.153	138.3136
4.000000	45.120	134.1733
4.060000	45.932	131.6467
4.120000	46.501	129.4398
4.180000	46.894	127.1789
4.250000	47.190	124.5905
4.310000	47.351	122.5147
4.370000	47.474	120.6638
4.440000	47.588	118.8014
4.500000	47.595	117.2830
4.550000	47.545	116.1241
4.620000	47.415	114.7711
4.680000	47.266	113.9608
4.750000	47.077	113.5516
4.820000	46.847	113.7790
4.870000	46.628	114.2697
4.940000	46.285	115.3760
5.000000	45.997	116.6796
5.080000	45.687	118.8711
5.150000	45.541	121.2040
5.220000	45.478	124.3401
5.300000	45.483	128.6069
5.380000	45.571	132.9803
5.450000	45.718	136.3851
5.520000	45.936	139.0032
5.600000	46.321	141.4338
5.700000	46.932	143.8166
5.800000	47.558	145.4166
5.900000	48.077	146.1416
6.000000	48.550	145.7973
6.080000	48.898	144.9811
6.150000	49.169	144.0694
6.220000	49.396	143.1351
6.300000	49.597	141.9801
6.400000	49.776	140.2062
6.500000	49.888	138.3219
6.600000	49.953	136.6024
6.700000	49.953	135.0099
6.800000	49.896	133.4826
6.900000	49.813	132.1465
7.000000	49.732	131.1192
7.100000	49.622	130.3912
7.200000	49.507	129.8850
7.300000	49.422	129.5277
7.400000	49.386	129.3351
7.500000	49.379	129.3761
7.620000	49.417	129.4532
7.750000	49.532	129.2438
7.880000	49.731	128.8629
8.000000	49.954	128.2645
8.120000	50.187	127.2819
8.250000	50.470	125.8013
8.380000	50.755	124.0466
8.500000	50.995	122.2620
8.620000	51.224	120.2484
8.750000	51.456	118.0077
8.850000	51.620	116.3492
9.000000	51.839	113.8523
9.120000	52.005	111.9604
9.250000	52.181	110.1156
9.380000	52.350	108.4338
9.500000	52.511	107.0268
9.620000	52.686	105.7786
9.750000	52.885	104.5962
9.880000	53.090	103.5096
10.000000	53.283	102.5744
10.150000	53.531	101.5075
10.300000	53.780	100.4593
10.440000	54.015	99.4936
10.600000	54.281	98.4133
10.750000	54.522	97.4093
10.900000	54.755	96.4259
11.060000	54.990	95.4362
11.200000	55.184	94.6166
11.380000	55.419	93.6391
11.500000	55.568	93.0442
11.720000	55.825	92.0388
11.800000	55.915	91.6945
12.060000	56.193	90.6474
12.200000	56.330	90.0975
12.410000	56.523	89.2954
12.500000	56.606	88.9574
12.650000	56.746	88.3988
12.800000	56.880	87.8614
13.150000	57.151	86.7226
13.200000	57.187	86.5749
13.400000	57.319	86.0303
13.600000	57.446	85.5239
13.800000	57.569	85.0514
14.000000	57.691	84.5534
14.300000	57.871	83.7277
14.500000	57.985	83.0844
14.750000	58.112	82.1979
15.000000	58.222	81.2366
15.250000	58.314	80.2634
15.500000	58.396	79.3127
15.750000	58.476	78.3959
16.000000	58.565	77.5042
16.250000	58.668	76.5930
16.500000	58.783	75.6421
16.750000	58.902	74.6252
17.000000	59.019	73.5638
17.250000	59.133	72.4836
17.500000	59.241	71.4218
17.750000	59.346	70.4195
18.000000	59.452	69.4828
18.250000	59.562	68.6168
18.500000	59.677	67.7989
18.750000	59.795	67.0149
19.000000	59.915	66.2521
19.250000	60.031	65.5087
19.500000	60.142	64.7984
19.750000	60.247	64.1320
20.000000	60.344	63.5297
20.299999	60.457	62.8966
20.600000	60.568	62.3531
20.900000	60.680	61.8729
21.200001	60.792	61.4131
21.400000	60.867	61.0914
21.799999	61.010	60.3824
22.000000	61.073	59.9891
22.400000	61.179	59.1447
22.700001	61.235	58.5069
23.000000	61.276	57.9141
23.299999	61.309	57.3872
23.600000	61.341	56.9130
24.000000	61.392	56.3042
24.299999	61.435	55.8092
24.700001	61.494	55.0667
25.000000	61.532	54.4753
25.400000	61.575	53.7159
25.799999	61.621	53.0526
26.200001	61.688	52.4525
26.500000	61.754	51.9756
26.900000	61.853	51.2297
27.200001	61.923	50.5831
27.600000	61.998	49.6745
28.000000	62.050	48.8465
28.500000	62.099	48.0727
29.000000	62.165	47.5536
29.500000	62.257	47.0949
30.000000	62.358	46.5308
30.400000	62.426	46.0034
30.700001	62.465	45.6017
31.100000	62.504	45.1154
31.500000	62.534	44.7135
32.000000	62.575	44.2993
32.500000	62.626	43.8824
33.000000	62.678	43.3816
33.500000	62.720	42.8136
34.000000	62.748	42.2560
34.500000	62.771	41.7632
35.000000	62.797	41.3343
35.500000	62.831	40.9388
36.000000	62.875	40.5414
36.500000	62.924	40.1082
37.000000	62.969	39.6279
37.500000	63.002	39.1465
38.200001	63.034	38.6315
38.700001	63.066	38.4010
39.500000	63.157	37.9560
40.000000	63.212	37.4896
40.599998	63.247	36.8450
41.200001	63.254	36.3284
41.799999	63.264	35.9683
42.500000	63.290	35.5682
43.099998	63.310	35.1967
43.700001	63.327	34.8752
44.400002	63.360	34.5338
45.000000	63.396	34.1705
45.500000	63.418	33.8238
46.200001	63.438	33.3684
46.799999	63.451	33.0453
47.500000	63.470	32.7215
48.200001	63.492	32.4395
48.700001	63.512	32.2524
49.400002	63.542	31.9812
50.000000	63.569	31.7296
50.799999	63.598	31.3852
51.500000	63.617	31.1147
52.200001	63.638	30.8720
53.000000	63.663	30.5460
53.799999	63.671	30.2140
54.500000	63.677	30.0289
55.200001	63.700	29.8414
56.000000	63.727	29.4954
57.000000	63.749	29.0995
58.000000	63.786	28.6586
59.000000	63.788	28.1950
60.000000	63.798	28.1017
60.799999	63.837	27.9604
61.500000	63.861	27.7444
62.200001	63.873	27.5960
63.000000	63.893	27.4639
64.000000	63.917	27.2186
65.000000	63.929	26.9624
66.000000	63.939	26.7302
67.000000	63.955	26.5138
68.000000	63.972	26.2661
69.000000	63.986	26.0485
70.000000	64.004	25.8602
71.000000	64.018	25.6748
72.000000	64.028	25.5374
73.000000	64.044	25.3896
74.000000	64.048	25.1737
75.000000	64.042	25.0894
76.199997	64.065	24.9914
77.500000	64.081	24.7582
78.800003	64.103	24.5931
80.000000	64.129	24.3745
81.199997	64.141	24.1445
82.500000	64.155	24.0399
83.800003	64.172	23.8655
85.000000	64.174	23.7773
86.199997	64.184	23.7264
87.500000	64.201	23.6460
88.500000	64.215	23.5309
90.000000	64.223	23.3597
91.199997	64.235	23.2595
92.500000	64.247	23.1354
93.800003	64.258	23.0438
95.000000	64.269	22.9731
96.199997	64.283	22.9058
97.500000	64.295	22.8208
98.800003	64.306	22.7435
100.000000	64.316	22.6830
101.500000	64.332	22.6113
103.000000	64.347	22.5066
104.400002	64.357	22.4395
106.000000	64.375	22.3782
107.500000	64.388	22.3296
109.000000	64.406	22.2967
110.599998	64.419	22.2455
112.000000	64.432	22.1913
113.800003	64.443	22.1476
115.000000	64.458	22.1382
117.199997	64.485	22.0923
118.000000	64.494	22.0885
120.599998	64.518	22.0606
122.000000	64.528	22.0434
124.099998	64.545	21.9797
125.000000	64.552	21.9628
126.500000	64.571	21.9492
128.000000	64.591	21.9270
131.500000	64.639	21.9633
132.000000	64.648	21.9574
134.000000	64.674	21.9300
136.000000	64.701	21.9382
138.000000	64.729	21.9693
140.000000	64.758	21.9837
143.000000	64.794	21.9686
145.000000	64.819	21.9498
147.500000	64.852	21.9407
150.000000	64.887	21.9589
152.500000	64.922	21.9797
155.000000	64.954	21.9993
157.500000	64.987	22.0155
160.000000	65.017	22.0341
162.500000	65.039	22.0607
165.000000	65.059	22.0845
167.500000	65.076	22.1017
170.000000	65.093	22.1144
172.500000	65.112	22.1328
175.000000	65.132	22.1441
177.500000	65.149	22.1700
180.000000	65.169	22.1987
182.500000	65.189	22.2261
185.000000	65.208	22.2427
187.500000	65.226	22.2669
190.000000	65.243	22.2857
192.500000	65.260	22.3010
195.000000	65.277	22.3226
197.500000	65.295	22.3579
200.000000	65.315	22.3894
203.000000	65.344	22.4239
206.000000	65.374	22.4265
209.000000	65.400	22.4421
212.000000	65.427	22.4602
214.000000	65.444	22.4727
218.000000	65.481	22.5075
220.000000	65.500	22.5230
224.000000	65.538	22.5335
227.000000	65.563	22.5454
230.000000	65.587	22.5746
233.000000	65.614	22.5943
236.000000	65.639	22.6056
240.000000	65.674	22.6282
243.000000	65.700	22.6433
247.000000	65.731	22.6650
250.000000	65.756	22.6730
254.000000	65.789	22.6941
258.000000	65.821	22.7200
262.000000	65.851	22.7249
265.000000	65.878	22.7233
269.000000	65.909	22.7290
272.000000	65.934	22.7519
276.000000	65.968	22.7673
280.000000	65.996	22.7710
285.000000	66.031	22.7781
290.000000	66.066	22.7911
295.000000	66.100	22.7968
300.000000	66.136	22.8146
304.000000	66.163	22.8248
307.000000	66.183	22.8324
311.000000	66.210	22.8337
315.000000	66.237	22.8323
320.000000	66.268	22.8278
325.000000	66.296	22.8134
330.000000	66.325	22.8308
335.000000	66.352	22.8442
340.000000	66.380	22.8387
345.000000	66.407	22.8351
350.000000	66.432	22.8532
355.000000	66.456	22.8639
360.000000	66.481	22.8553
365.000000	66.505	22.8397
370.000000	66.531	22.8434
375.000000	66.555	22.8515
382.000000	66.585	22.8414
387.000000	66.606	22.8396
395.000000	66.642	22.8377
400.000000	66.661	22.8486
406.000000	66.681	22.8367
412.000000	66.702	22.8322
418.000000	66.726	22.8440
425.000000	66.750	22.8471
431.000000	66.768	22.8196
437.000000	66.787	22.8146
444.000000	66.809	22.8175
450.000000	66.826	22.8050
455.000000	66.838	22.7928
462.000000	66.857	22.7911
468.000000	66.869	22.8032
475.000000	66.884	22.8064
482.000000	66.900	22.8010
487.000000	66.908	22.8009
494.000000	66.916	22.8115
500.000000	66.924	22.8111
508.000000	66.935	22.8207
515.000000	66.943	22.8548
522.000000	66.949	22.8786
530.000000	66.953	22.8912
538.000000	66.959	22.9159
545.000000	66.962	22.9698
552.000000	66.963	23.0244
560.000000	66.961	23.0804
570.000000	66.957	23.1542
580.000000	66.951	23.2643
590.000000	66.940	23.4065
600.000000	66.927	23.5753
608.000000	66.917	23.7314
615.000000	66.907	23.8891
622.000000	66.897	24.0562
630.000000	66.887	24.2746
640.000000	66.878	24.5672
650.000000	66.871	24.8677
660.000000	66.864	25.1783
670.000000	66.857	25.4879
680.000000	66.850	25.8111
690.000000	66.844	26.1400
700.000000	66.836	26.4767
710.000000	66.824	26.8379
720.000000	66.814	27.2333
730.000000	66.805	27.6639
740.000000	66.796	28.1186
750.000000	66.787	28.5679
762.000000	66.780	29.1505
775.000000	66.777	29.8413
788.000000	66.780	30.5363
800.000000	66.786	31.2135
812.000000	66.790	31.8877
825.000000	66.802	32.6285
838.000000	66.817	33.3858
850.000000	66.834	34.0770
862.000000	66.855	34.7495
875.000000	66.880	35.4660
885.000000	66.901	36.0218
900.000000	66.935	36.8633
912.000000	66.965	37.5469
925.000000	67.002	38.2893
938.000000	67.044	39.0359
950.000000	67.089	39.7145
962.000000	67.139	40.3874
975.000000	67.197	41.1117
988.000000	67.261	41.8190
1000.000000	67.327	42.4507
1015.000000	67.419	43.1961
1030.000000	67.520	43.9205
1044.000000	67.618	44.5538
1060.000000	67.732	45.2416
1075.000000	67.839	45.8440
1090.000000	67.950	46.4120
1106.000000	68.068	46.9744
1120.000000	68.173	47.4308
1138.000000	68.308	47.9815
1150.000000	68.396	48.3235
1172.000000	68.555	48.9263
1180.000000	68.611	49.1351
1206.000000	68.793	49.7841
1220.000000	68.890	50.1102
1241.000000	69.030	50.5749
1250.000000	69.082	50.7765
1265.000000	69.156	51.1354
1280.000000	69.224	51.4956
1315.000000	69.380	52.2546
1320.000000	69.402	52.3683
1340.000000	69.492	52.8444
1360.000000	69.580	53.3227
1380.000000	69.672	53.7822
1400.000000	69.766	54.2675
1430.000000	69.911	54.9981
1450.000000	70.008	55.4849
1475.000000	70.136	56.1107
1500.000000	70.271	56.7154
1525.000000	70.413	57.2801
1550.000000	70.556	57.8643
1575.000000	70.707	58.4221
1600.000000	70.872	58.9065
1625.000000	71.071	59.3541
1650.000000	71.282	59.7627
1675.000000	71.496	60.0894
1700.000000	71.714	60.3447
1725.000000	71.936	60.5340
1750.000000	72.160	60.6113
1775.000000	72.383	60.5970
1800.000000	72.604	60.4993
1825.000000	72.821	60.3046
1850.000000	73.036	59.9899
1875.000000	73.247	59.5744
1900.000000	73.449	59.0570
1925.000000	73.646	58.4358
1950.000000	73.832	57.6993
1975.000000	74.009	56.8628
2000.000000	74.174	55.9261
2030.000000	74.350	54.6763
2060.000000	74.509	53.2936
2090.000000	74.658	51.7642
2120.000000	74.796	50.0944
2140.000000	74.880	48.9196
2180.000000	75.032	46.4430
2200.000000	75.102	45.1321
2240.000000	75.225	42.3974
2270.000000	75.305	40.2792
2300.000000	75.370	38.1189
2330.000000	75.418	35.9358
2360.000000	75.448	33.7687
2400.000000	75.457	30.9334
2430.000000	75.442	28.8739
2470.000000	75.395	26.2588
2500.000000	75.342	24.4177
2540.000000	75.249	22.1411
2580.000000	75.138	20.0859
2620.000000	75.012	18.2585
2650.000000	74.909	17.0413
2690.000000	74.763	15.6398
2720.000000	74.654	14.7175
2760.000000	74.508	13.6501
2800.000000	74.367	12.7972
2850.000000	74.197	11.9553
2900.000000	74.034	11.3600
2950.000000	73.886	10.9731
3000.000000	73.761	10.7354
3040.000000	73.677	10.6493
3070.000000	73.621	10.6480
3110.000000	73.557	10.7061
3150.000000	73.505	10.8082
3200.000000	73.462	10.9958
3250.000000	73.442	11.2379
3300.000000	73.445	11.5010
3350.000000	73.472	11.7668
3400.000000	73.520	12.0293
3450.000000	73.592	12.2638
3500.000000	73.690	12.4224
3550.000000	73.811	12.5176
3600.000000	73.948	12.5179
3650.000000	74.108	12.3926
3700.000000	74.290	12.0987
3750.000000	74.491	11.6227
3820.000000	74.794	10.5689
3870.000000	75.022	9.4843
3950.000000	75.398	7.0586
4000.000000	75.631	5.0209
4060.000000	75.892	2.0061
4120.000000	76.118	-1.6953
4180.000000	76.294	-6.0914
4250.000000	76.407	-12.0067
4310.000000	76.402	-17.5748
4370.000000	76.289	-23.3387
4440.000000	76.008	-29.8809
4500.000000	75.640	-34.9785
4550.000000	75.251	-38.6981
4620.000000	74.608	-42.9703
4680.000000	73.991	-45.7883
4750.000000	73.227	-48.1593
4820.000000	72.439	-49.6500
4870.000000	71.877	-50.2697
4940.000000	71.110	-50.6043
5000.000000	70.479	-50.4859
5080.000000	69.662	-49.8398
5150.000000	68.966	-48.8431
5220.000000	68.302	-47.5569
5300.000000	67.593	-45.8089
5380.000000	66.935	-43.7946
5450.000000	66.388	-41.7909
5520.000000	65.865	-39.5957
5600.000000	65.303	-36.7941
5700.000000	64.696	-32.3583
5800.000000	64.423	-28.1988
5900.000000	64.089	-26.0728
6000.000000	63.606	-23.2048
6080.000000	63.256	-20.4366
6150.000000	62.987	-17.8746
6220.000000	62.747	-15.2375
6300.000000	62.519	-12.1667
6400.000000	62.328	-8.2878
6500.000000	62.198	-4.3722
6600.000000	62.128	-0.4521
6700.000000	62.103	3.4670
6800.000000	62.113	7.3860
6900.000000	62.164	11.2874
7000.000000	62.269	15.1547
7100.000000	62.421	18.9858
7200.000000	62.620	22.7210
7300.000000	62.873	26.3114
7400.000000	63.178	29.7340
7500.000000	63.528	33.0191
7620.000000	64.010	36.7148
7750.000000	64.628	40.3405
7880.000000	65.357	43.4195
8000.000000	66.085	45.6623
8120.000000	66.810	47.1266
8250.000000	67.646	47.5784
8380.000000	68.519	46.5190
8500.000000	69.297	43.9276
8620.000000	69.967	39.6382
8750.000000	70.435	33.3669
8850.000000	70.550	27.9221
9000.000000	70.307	20.1372
9120.000000	69.834	15.2120
9250.000000	69.175	11.6804
9380.000000	68.478	9.9843
9500.000000	67.874	9.7800
9620.000000	67.359	10.5795
9750.000000	66.929	12.2733
9880.000000	66.648	14.5593
10000.000000	66.539	16.9915
10150.000000	66.665	20.1474
10300.000000	67.062	23.0527
10440.000000	67.677	25.0627
10600.000000	68.661	25.6568
10750.000000	69.768	23.4634
10900.000000	70.846	17.5715
11060.000000	71.629	7.1484
11200.000000	71.799	-4.1160
11380.000000	71.258	-18.4698
11500.000000	70.492	-26.4935
11720.000000	68.559	-36.1468
11800.000000	67.786	-38.0171
12060.000000	65.405	-39.5105
12200.000000	64.309	-38.3884
12410.000000	62.900	-35.3517
12500.000000	62.372	-33.7121
12650.000000	61.581	-30.6609
12800.000000	60.915	-27.3423
13150.000000	59.896	-19.3641
13200.000000	59.813	-18.2887
13400.000000	59.649	-14.4881
13600.000000	59.750	-11.9379
13800.000000	60.084	-11.5618
14000.000000	60.534	-14.6311
14300.000000	60.673	-27.3903
14500.000000	59.806	-39.0097
14750.000000	57.563	-50.1790
15000.000000	54.759	-54.2822
15250.000000	52.033	-52.7561
15500.000000	49.630	-47.8940
15750.000000	47.569	-41.1798
16000.000000	45.855	-33.1267
16250.000000	44.687	-24.1101
16500.000000	43.886	-14.7256
16750.000000	43.301	-5.4211
17000.000000	42.937	3.8739
17250.000000	42.770	13.0333
17500.000000	42.757	21.9209
17750.000000	42.923	30.1386
18000.000000	43.299	37.4068
18250.000000	43.820	43.2277
18500.000000	44.397	47.1371
18750.000000	44.930	48.1860
19000.000000	45.162	46.0827
19250.000000	44.845	41.8489
19500.000000	43.789	37.9176
19750.000000	42.160	36.5782
