* Measurement data measured by REW V5.30 beta 4
* Source: Microphone (USB Sound Device        ), MICROPHONE (Master Volume), L, volume: 0.660. Timing signal peak level -14.7 dBFS, measurement signal peak level -13.3 dBFS
* Format: 256k Log Swept Sine, 1 sweep at -12.0 dBFS using an acoustic timing reference
* Dated: Dec 6, 2023 3:41:18 PM
* REW Settings:
*  C-weighting compensation: Off
*  Target level: 75.0 dB
* Note: Delay -0.0177 ms (-6.1 mm, -0.24 in) using estimated IR delay relative to Acoustic reference played from SPEAKER L with no timing offset
* Measurement: L EJ07M KL Blue Left Dec 6
* Smoothing: None
* Frequency Step: 1/48 octave
* Start Frequency: 1.000 Hz
*
* Freq(Hz) SPL(dB) Phase(degrees)
1.000000 132.758 -60.7732
1.015000 132.656 -61.5425
1.030000 132.552 -62.2977
1.044000 132.454 -62.9893
1.060000 132.339 -63.7628
1.075000 132.230 -64.4708
1.090000 132.119 -65.1613
1.106000 131.998 -65.8803
1.120000 131.889 -66.5106
1.138000 131.746 -67.3246
1.150000 131.648 -67.8677
1.172000 131.465 -68.8604
1.180000 131.397 -69.2193
1.206000 131.171 -70.3727
1.220000 131.048 -70.9827
1.241000 130.859 -71.8782
1.250000 130.777 -72.2536
1.265000 130.640 -72.8663
1.280000 130.501 -73.4609
1.315000 130.174 -74.7657
1.320000 130.127 -74.9415
1.340000 129.938 -75.6149
1.360000 129.749 -76.2367
1.380000 129.559 -76.8018
1.400000 129.369 -77.3051
1.430000 129.087 -77.9328
1.450000 128.900 -78.2589
1.475000 128.667 -78.5559
1.500000 128.420 -78.7467
1.525000 128.160 -78.8402
1.550000 127.890 -78.8409
1.575000 127.613 -78.7534
1.600000 127.334 -78.5820
1.625000 127.056 -78.3314
1.650000 126.783 -78.0060
1.675000 126.518 -77.6104
1.700000 126.265 -77.1492
1.725000 126.029 -76.6267
1.750000 125.812 -76.0476
1.775000 125.618 -75.4163
1.800000 125.452 -74.7374
1.825000 125.316 -74.0154
1.850000 125.211 -73.2093
1.875000 125.128 -72.2281
1.900000 125.067 -71.0961
1.925000 125.025 -69.8424
1.950000 125.002 -68.4964
1.975000 124.996 -67.0871
2.000000 125.007 -65.6438
2.030000 125.039 -63.9081
2.060000 125.091 -62.2160
2.090000 125.161 -60.6178
2.120000 125.245 -59.1641
2.140000 125.309 -58.3001
2.180000 125.452 -56.8919
2.200000 125.530 -56.3769
2.240000 125.724 -55.6092
2.270000 125.905 -55.2071
2.300000 126.110 -54.9420
2.330000 126.336 -54.8033
2.360000 126.575 -54.7804
2.400000 126.909 -54.9116
2.430000 127.163 -55.1176
2.470000 127.496 -55.5154
2.500000 127.736 -55.8923
2.540000 128.033 -56.4795
2.580000 128.294 -57.1565
2.620000 128.544 -58.0343
2.650000 128.728 -58.8238
2.690000 128.966 -60.0214
2.720000 129.140 -61.0080
2.760000 129.363 -62.4114
2.800000 129.576 -63.8811
2.850000 129.827 -65.7549
2.900000 130.059 -67.6014
2.950000 130.270 -69.3699
3.000000 130.460 -71.1984
3.040000 130.597 -72.7135
3.070000 130.693 -73.8686
3.110000 130.811 -75.4197
3.150000 130.919 -76.9670
3.200000 131.042 -78.8687
3.250000 131.153 -80.7021
3.300000 131.253 -82.4330
3.350000 131.338 -84.1054
3.400000 131.406 -85.7536
3.450000 131.460 -87.3585
3.500000 131.502 -88.9010
3.550000 131.537 -90.3621
3.600000 131.566 -91.7227
3.650000 131.593 -92.9637
3.700000 131.616 -94.0805
3.750000 131.627 -95.0979
3.820000 131.627 -96.3592
3.870000 131.624 -97.1447
3.950000 131.624 -98.2035
4.000000 131.635 -98.7427
4.060000 131.662 -99.2538
4.120000 131.693 -99.5673
4.180000 131.729 -99.7199
4.250000 131.782 -99.7591
4.310000 131.844 -99.7292
4.370000 131.924 -99.6921
4.440000 132.047 -99.6493
4.500000 132.175 -99.5198
4.550000 132.295 -99.3716
4.620000 132.480 -99.1556
4.680000 132.647 -99.0117
4.750000 132.849 -98.9560
4.820000 133.061 -99.0372
4.870000 133.224 -99.1419
4.940000 133.463 -99.3525
5.000000 133.669 -99.5923
5.080000 133.938 -99.9973
5.150000 134.158 -100.4347
5.220000 134.372 -100.9807
5.300000 134.611 -101.7118
5.380000 134.839 -102.5070
5.450000 135.024 -103.2140
5.520000 135.194 -103.9034
5.600000 135.369 -104.7314
5.700000 135.565 -105.7979
5.800000 135.740 -106.8173
5.900000 135.896 -107.7140
6.000000 136.027 -108.5300
6.080000 136.118 -109.1231
6.150000 136.193 -109.5868
6.220000 136.267 -109.9892
6.300000 136.350 -110.3623
6.400000 136.445 -110.7124
6.500000 136.539 -110.9713
6.600000 136.641 -111.1794
6.700000 136.752 -111.3086
6.800000 136.869 -111.3662
6.900000 136.991 -111.4164
7.000000 137.121 -111.5128
7.100000 137.260 -111.6197
7.200000 137.403 -111.7481
7.300000 137.545 -111.9268
7.400000 137.684 -112.1770
7.500000 137.823 -112.4859
7.620000 137.983 -112.9114
7.750000 138.140 -113.4196
7.880000 138.283 -113.9988
8.000000 138.403 -114.5523
8.120000 138.509 -115.0823
8.250000 138.609 -115.6535
8.380000 138.699 -116.1973
8.500000 138.776 -116.6496
8.620000 138.845 -117.0618
8.750000 138.917 -117.4771
8.850000 138.974 -117.7783
9.000000 139.059 -118.1885
9.120000 139.127 -118.5120
9.250000 139.204 -118.8791
9.380000 139.283 -119.2513
9.500000 139.355 -119.6163
9.620000 139.427 -120.0137
9.750000 139.503 -120.4724
9.880000 139.576 -120.9532
10.000000 139.639 -121.4184
10.150000 139.714 -122.0251
10.300000 139.783 -122.6332
10.440000 139.842 -123.2037
10.600000 139.906 -123.8501
10.750000 139.964 -124.4387
10.900000 140.019 -125.0162
11.060000 140.080 -125.6241
11.200000 140.133 -126.1470
11.380000 140.203 -126.8210
11.500000 140.250 -127.2741
11.720000 140.338 -128.1110
11.800000 140.370 -128.4189
12.060000 140.472 -129.4266
12.200000 140.526 -129.9656
12.410000 140.605 -130.7676
12.500000 140.639 -131.1044
12.650000 140.695 -131.6570
12.800000 140.751 -132.2001
13.150000 140.884 -133.4303
13.200000 140.903 -133.6040
13.400000 140.980 -134.2944
13.600000 141.056 -134.9802
13.800000 141.129 -135.6645
14.000000 141.199 -136.3362
14.300000 141.297 -137.3120
14.500000 141.356 -137.9263
14.750000 141.428 -138.6501
15.000000 141.497 -139.3260
15.250000 141.565 -139.9693
15.500000 141.632 -140.5993
15.750000 141.697 -141.2262
16.000000 141.757 -141.8591
16.250000 141.811 -142.4887
16.500000 141.857 -143.1081
16.750000 141.896 -143.7053
17.000000 141.932 -144.2774
17.250000 141.965 -144.8290
17.500000 141.996 -145.3678
17.750000 142.027 -145.9088
18.000000 142.056 -146.4565
18.250000 142.083 -147.0155
18.500000 142.107 -147.5816
18.750000 142.129 -148.1499
19.000000 142.148 -148.7164
19.250000 142.167 -149.2781
19.500000 142.185 -149.8363
19.750000 142.203 -150.3921
20.000000 142.221 -150.9467
20.299999 142.242 -151.6080
20.600000 142.264 -152.2607
20.900000 142.286 -152.9003
21.200001 142.309 -153.5248
21.400000 142.325 -153.9341
21.799999 142.357 -154.7374
22.000000 142.373 -155.1309
22.400000 142.404 -155.8963
22.700001 142.425 -156.4439
23.000000 142.445 -156.9643
23.299999 142.465 -157.4606
23.600000 142.485 -157.9391
24.000000 142.509 -158.5599
24.299999 142.525 -159.0159
24.700001 142.541 -159.6070
25.000000 142.550 -160.0327
25.400000 142.558 -160.5747
25.799999 142.564 -161.0957
26.200001 142.568 -161.6089
26.500000 142.571 -161.9948
26.900000 142.572 -162.5141
27.200001 142.572 -162.9076
27.600000 142.570 -163.4372
28.000000 142.567 -163.9695
28.500000 142.562 -164.6304
29.000000 142.557 -165.2787
29.500000 142.553 -165.9182
30.000000 142.552 -166.5552
30.400000 142.549 -167.0569
30.700001 142.547 -167.4216
31.100000 142.544 -167.8861
31.500000 142.541 -168.3277
32.000000 142.540 -168.8598
32.500000 142.537 -169.3781
33.000000 142.531 -169.8754
33.500000 142.524 -170.3441
34.000000 142.515 -170.7907
34.500000 142.507 -171.2285
35.000000 142.497 -171.6641
35.500000 142.485 -172.0973
36.000000 142.472 -172.5264
36.500000 142.459 -172.9500
37.000000 142.446 -173.3679
37.500000 142.434 -173.7834
38.200001 142.417 -174.3655
38.700001 142.406 -174.7748
39.500000 142.387 -175.4027
40.000000 142.376 -175.7842
40.599998 142.363 -176.2344
41.200001 142.347 -176.6657
41.799999 142.330 -177.0759
42.500000 142.310 -177.5413
43.099998 142.291 -177.9340
43.700001 142.271 -178.3208
44.400002 142.247 -178.7691
45.000000 142.224 -179.1501
45.500000 142.205 -179.4629
46.200001 142.178 -179.8974
46.799999 142.155 179.7310
47.500000 142.127 179.3040
48.200001 142.099 178.8862
48.700001 142.079 178.5925
49.400002 142.051 178.1890
50.000000 142.027 177.8492
50.799999 141.994 177.4049
51.500000 141.966 177.0294
52.200001 141.939 176.6624
53.000000 141.909 176.2434
53.799999 141.878 175.8285
54.500000 141.849 175.4836
55.200001 141.820 175.1622
56.000000 141.791 174.8000
57.000000 141.751 174.3389
58.000000 141.708 173.9046
59.000000 141.667 173.4760
60.000000 141.624 173.0518
60.799999 141.590 172.7188
61.500000 141.561 172.4336
62.200001 141.532 172.1593
63.000000 141.500 171.8556
64.000000 141.461 171.4796
65.000000 141.419 171.1194
66.000000 141.377 170.7903
67.000000 141.337 170.4649
68.000000 141.294 170.1411
69.000000 141.251 169.8336
70.000000 141.210 169.5350
71.000000 141.169 169.2330
72.000000 141.128 168.9449
73.000000 141.087 168.6680
74.000000 141.047 168.3977
75.000000 141.007 168.1346
76.199997 140.958 167.8179
77.500000 140.906 167.4991
78.800003 140.854 167.1789
80.000000 140.806 166.9135
81.199997 140.760 166.6500
82.500000 140.709 166.3787
83.800003 140.660 166.1200
85.000000 140.613 165.8893
86.199997 140.569 165.6743
87.500000 140.521 165.4329
88.500000 140.482 165.2620
90.000000 140.425 165.0155
91.199997 140.380 164.8241
92.500000 140.331 164.6212
93.800003 140.284 164.4223
95.000000 140.241 164.2482
96.199997 140.198 164.0837
97.500000 140.152 163.9224
98.800003 140.106 163.7607
100.000000 140.063 163.6239
101.500000 140.009 163.4518
103.000000 139.957 163.2969
104.400002 139.909 163.1468
106.000000 139.856 162.9919
107.500000 139.805 162.8438
109.000000 139.756 162.7076
110.599998 139.702 162.5781
112.000000 139.658 162.4688
113.800003 139.600 162.3294
115.000000 139.563 162.2440
117.199997 139.496 162.0972
118.000000 139.472 162.0395
120.599998 139.393 161.8738
122.000000 139.351 161.7984
124.099998 139.289 161.6981
125.000000 139.263 161.6541
126.500000 139.219 161.5921
128.000000 139.177 161.5232
131.500000 139.078 161.3934
132.000000 139.063 161.3810
134.000000 139.007 161.3280
136.000000 138.954 161.2637
138.000000 138.900 161.2175
140.000000 138.848 161.1928
143.000000 138.770 161.1334
145.000000 138.719 161.0964
147.500000 138.656 161.0550
150.000000 138.597 161.0256
152.500000 138.541 161.0073
155.000000 138.483 160.9901
157.500000 138.427 160.9801
160.000000 138.373 160.9933
162.500000 138.319 160.9864
165.000000 138.266 161.0069
167.500000 138.213 161.0237
170.000000 138.163 161.0373
172.500000 138.112 161.0682
175.000000 138.064 161.0973
177.500000 138.014 161.1235
180.000000 137.966 161.1692
182.500000 137.919 161.2021
185.000000 137.873 161.2433
187.500000 137.825 161.2905
190.000000 137.781 161.3471
192.500000 137.737 161.3949
195.000000 137.692 161.4577
197.500000 137.650 161.5107
200.000000 137.607 161.5706
203.000000 137.558 161.6504
206.000000 137.510 161.7140
209.000000 137.463 161.7997
212.000000 137.418 161.8892
214.000000 137.388 161.9354
218.000000 137.328 162.0404
220.000000 137.298 162.1031
224.000000 137.239 162.2319
227.000000 137.199 162.3195
230.000000 137.158 162.4111
233.000000 137.115 162.5271
236.000000 137.076 162.6129
240.000000 137.023 162.7410
243.000000 136.986 162.8403
247.000000 136.935 162.9831
250.000000 136.898 163.0849
254.000000 136.850 163.2183
258.000000 136.803 163.3638
262.000000 136.759 163.5029
265.000000 136.725 163.6072
269.000000 136.678 163.7351
272.000000 136.647 163.8438
276.000000 136.605 163.9910
280.000000 136.563 164.1353
285.000000 136.512 164.3339
290.000000 136.462 164.5215
295.000000 136.412 164.6979
300.000000 136.364 164.8762
304.000000 136.325 165.0311
307.000000 136.299 165.1411
311.000000 136.259 165.3041
315.000000 136.224 165.4616
320.000000 136.180 165.6520
325.000000 136.137 165.8503
330.000000 136.091 166.0456
335.000000 136.051 166.2426
340.000000 136.010 166.4119
345.000000 135.969 166.6005
350.000000 135.930 166.7845
355.000000 135.887 167.0004
360.000000 135.849 167.1891
365.000000 135.811 167.3698
370.000000 135.773 167.5656
375.000000 135.735 167.7604
382.000000 135.681 168.0511
387.000000 135.644 168.2398
395.000000 135.587 168.5314
400.000000 135.550 168.7291
406.000000 135.508 168.9509
412.000000 135.465 169.1824
418.000000 135.426 169.4167
425.000000 135.376 169.6702
431.000000 135.337 169.9149
437.000000 135.296 170.1323
444.000000 135.254 170.4128
450.000000 135.215 170.6424
455.000000 135.185 170.8343
462.000000 135.144 171.1038
468.000000 135.104 171.3369
475.000000 135.063 171.6013
482.000000 135.020 171.8694
487.000000 134.988 172.0821
494.000000 134.949 172.3480
500.000000 134.914 172.5952
508.000000 134.868 172.9201
515.000000 134.825 173.1769
522.000000 134.788 173.4776
530.000000 134.743 173.7964
538.000000 134.696 174.1336
545.000000 134.656 174.4196
552.000000 134.621 174.7208
560.000000 134.573 175.0404
570.000000 134.523 175.4613
580.000000 134.474 175.8782
590.000000 134.425 176.3233
600.000000 134.372 176.7645
608.000000 134.332 177.1354
615.000000 134.302 177.4461
622.000000 134.268 177.7833
630.000000 134.231 178.1611
640.000000 134.188 178.6068
650.000000 134.143 179.0912
660.000000 134.101 179.5975
670.000000 134.057 -179.9127
680.000000 134.019 -179.3899
690.000000 133.977 -178.8553
700.000000 133.939 -178.3325
710.000000 133.904 -177.7951
720.000000 133.876 -177.2345
730.000000 133.849 -176.6737
740.000000 133.826 -176.1304
750.000000 133.801 -175.5619
762.000000 133.781 -174.8947
775.000000 133.760 -174.2105
788.000000 133.731 -173.5026
800.000000 133.714 -172.7796
812.000000 133.698 -172.0918
825.000000 133.690 -171.3108
838.000000 133.685 -170.5197
850.000000 133.682 -169.8086
862.000000 133.689 -169.0713
875.000000 133.702 -168.2865
885.000000 133.715 -167.6752
900.000000 133.742 -166.7996
912.000000 133.767 -166.0930
925.000000 133.801 -165.3557
938.000000 133.840 -164.6453
950.000000 133.880 -164.0122
962.000000 133.922 -163.3745
975.000000 133.974 -162.7339
988.000000 134.022 -162.0715
1000.000000 134.070 -161.4770
1015.000000 134.142 -160.8837
1030.000000 134.211 -160.2546
1044.000000 134.284 -159.7048
1060.000000 134.363 -159.1217
1075.000000 134.437 -158.6271
1090.000000 134.513 -158.1570
1106.000000 134.598 -157.6869
1120.000000 134.673 -157.3185
1138.000000 134.761 -156.8684
1150.000000 134.824 -156.6039
1172.000000 134.929 -156.1451
1180.000000 134.973 -155.9876
1206.000000 135.094 -155.4979
1220.000000 135.157 -155.2924
1241.000000 135.252 -154.9511
1250.000000 135.290 -154.8381
1265.000000 135.355 -154.6129
1280.000000 135.413 -154.4281
1315.000000 135.555 -154.0237
1320.000000 135.575 -153.9369
1340.000000 135.652 -153.7296
1360.000000 135.723 -153.5363
1380.000000 135.791 -153.3362
1400.000000 135.857 -153.1016
1430.000000 135.962 -152.7751
1450.000000 136.029 -152.5541
1475.000000 136.118 -152.3087
1500.000000 136.203 -152.0377
1525.000000 136.293 -151.7925
1550.000000 136.381 -151.5330
1575.000000 136.474 -151.3457
1600.000000 136.563 -151.1167
1625.000000 136.658 -150.9209
1650.000000 136.749 -150.7322
1675.000000 136.849 -150.5444
1700.000000 136.943 -150.3885
1725.000000 137.042 -150.2585
1750.000000 137.142 -150.0909
1775.000000 137.247 -149.9950
1800.000000 137.344 -149.9048
1825.000000 137.447 -149.8356
1850.000000 137.551 -149.7877
1875.000000 137.657 -149.7540
1900.000000 137.765 -149.7703
1925.000000 137.867 -149.8235
1950.000000 137.974 -149.8816
1975.000000 138.080 -149.9576
2000.000000 138.185 -150.1389
2030.000000 138.316 -150.2975
2060.000000 138.441 -150.5212
2090.000000 138.567 -150.8335
2120.000000 138.691 -151.1552
2140.000000 138.774 -151.4256
2180.000000 138.934 -152.0037
2200.000000 139.014 -152.3120
2240.000000 139.163 -153.0347
2270.000000 139.275 -153.6227
2300.000000 139.377 -154.2464
2330.000000 139.475 -154.9496
2360.000000 139.568 -155.6730
2400.000000 139.682 -156.7092
2430.000000 139.764 -157.5352
2470.000000 139.854 -158.7055
2500.000000 139.919 -159.6278
2540.000000 139.983 -160.8770
2580.000000 140.033 -162.1518
2620.000000 140.066 -163.4742
2650.000000 140.081 -164.4618
2690.000000 140.088 -165.7735
2720.000000 140.083 -166.7447
2760.000000 140.064 -168.0091
2800.000000 140.034 -169.2280
2850.000000 139.978 -170.6688
2900.000000 139.906 -172.0186
2950.000000 139.824 -173.2426
3000.000000 139.728 -174.3533
3040.000000 139.650 -175.1648
3070.000000 139.586 -175.7160
3110.000000 139.503 -176.3782
3150.000000 139.418 -176.9566
3200.000000 139.304 -177.5527
3250.000000 139.195 -178.0743
3300.000000 139.094 -178.4622
3350.000000 138.995 -178.7420
3400.000000 138.896 -178.9218
3450.000000 138.812 -179.0208
3500.000000 138.732 -179.0211
3550.000000 138.665 -178.9412
3600.000000 138.607 -178.7980
3650.000000 138.560 -178.6087
3700.000000 138.526 -178.3488
3750.000000 138.512 -178.0545
3820.000000 138.515 -177.5935
3870.000000 138.541 -177.2296
3950.000000 138.618 -176.6832
4000.000000 138.695 -176.3944
4060.000000 138.815 -176.0992
4120.000000 138.964 -175.9870
4180.000000 139.140 -176.0605
4250.000000 139.371 -176.4431
4310.000000 139.582 -177.0669
4370.000000 139.806 -178.0043
4440.000000 140.077 -179.5093
4500.000000 140.292 178.7974
4550.000000 140.469 177.1211
4620.000000 140.681 174.2710
4680.000000 140.829 171.3792
4750.000000 140.931 167.5092
4820.000000 140.935 163.2350
4870.000000 140.867 160.0256
4940.000000 140.655 155.5614
5000.000000 140.372 151.9971
5080.000000 139.894 148.0474
5150.000000 139.413 145.3699
5220.000000 138.909 143.3750
5300.000000 138.327 141.6709
5380.000000 137.722 140.5475
5450.000000 137.199 140.0702
5520.000000 136.687 140.0962
5600.000000 136.132 140.5295
5700.000000 135.488 141.5909
5800.000000 134.897 143.1368
5900.000000 134.375 145.0558
6000.000000 133.915 147.2393
6080.000000 133.593 149.1563
6150.000000 133.344 150.9469
6220.000000 133.115 152.8139
6300.000000 132.910 154.9537
6400.000000 132.702 157.7365
6500.000000 132.550 160.6537
6600.000000 132.468 163.4059
6700.000000 132.442 166.1541
6800.000000 132.485 168.8818
6900.000000 132.583 171.4217
7000.000000 132.771 173.8564
7100.000000 133.005 175.9008
7200.000000 133.307 177.6331
7300.000000 133.676 179.0067
7400.000000 134.085 179.7599
7500.000000 134.555 179.8651
7620.000000 135.158 178.8821
7750.000000 135.814 176.1878
7880.000000 136.353 171.5747
8000.000000 136.664 165.7606
8120.000000 136.643 159.3516
8250.000000 136.279 152.5244
8380.000000 135.604 147.0988
8500.000000 134.823 143.8055
8620.000000 133.985 141.9907
8750.000000 133.105 141.5881
8850.000000 132.483 142.1290
9000.000000 131.652 144.1112
9120.000000 131.071 146.2687
9250.000000 130.556 149.2458
9380.000000 130.175 152.4605
9500.000000 129.930 155.7123
9620.000000 129.752 159.1903
9750.000000 129.707 162.7130
9880.000000 129.765 166.3517
10000.000000 129.912 169.6716
10150.000000 130.252 173.2013
10300.000000 130.773 175.8734
10440.000000 131.391 177.7318
10600.000000 132.249 177.7014
10750.000000 133.078 174.9364
10900.000000 133.675 169.2205
11060.000000 133.718 161.1675
11200.000000 133.181 155.1652
11380.000000 132.125 151.4313
11500.000000 131.463 151.3173
11720.000000 130.578 153.0200
11800.000000 130.352 153.5584
12060.000000 129.680 155.0503
12200.000000 129.284 155.5406
12410.000000 128.534 156.7326
12500.000000 128.185 157.6229
12650.000000 127.558 159.7197
12800.000000 126.981 162.5573
13150.000000 125.773 171.4062
13200.000000 125.610 172.9908
13400.000000 125.130 179.5537
13600.000000 124.793 -173.3732
13800.000000 124.615 -166.2193
14000.000000 124.548 -158.9065
14300.000000 124.811 -148.2098
14500.000000 125.190 -141.0823
14750.000000 126.023 -133.3200
15000.000000 127.181 -127.4166
15250.000000 128.676 -124.8767
15500.000000 130.258 -127.7688
15750.000000 131.246 -136.7454
16000.000000 131.283 -146.8413
16250.000000 130.665 -156.4807
16500.000000 129.360 -164.1850
16750.000000 127.488 -167.3692
17000.000000 125.629 -165.2674
17250.000000 124.000 -159.9546
17500.000000 122.739 -152.4621
17750.000000 121.586 -144.2858
18000.000000 120.792 -134.7021
18250.000000 120.154 -125.5226
18500.000000 119.691 -116.2113
18750.000000 119.289 -106.9716
19000.000000 119.080 -98.6841
