* Measurement data measured by REW V5.20.13
* Source: C:\Users\marcu\OneDrive\Desktop\Fix\Raptgo Bridge s.11 f.G Stock White L.txt
* Format: Comma/Tab/Space delimited data
* Dated: Jul 17, 2023 6:57:36 PM
* REW Settings:
*  C-weighting compensation: Off
*  Target level: 75.0 dB
* Note: ; Measurement imported from C:\Users\marcu\OneDrive\Desktop\Fix\Raptgo Bridge s.11 f.G Stock White L.txt Format: Comma/Tab/Space delimited data 54613 values loaded, 0 Hz to 20,000 Hz
* Measurement: s.11 f.G Stock White L
* Smoothing: None
* Frequency Step: 1/48 octave
* Start Frequency: 1.000 Hz
*
* Freq(Hz)	SPL(dB)	Phase(degrees)
1.000000	57.961	125.9475
1.015000	57.806	125.0752
1.030000	57.645	124.1935
1.044000	57.491	123.3613
1.060000	57.310	122.3986
1.075000	57.135	121.4840
1.090000	56.954	120.5569
1.106000	56.756	119.5604
1.120000	56.581	118.7187
1.138000	56.352	117.6812
1.150000	56.198	117.0123
1.172000	55.910	115.8213
1.180000	55.804	115.3962
1.206000	55.452	114.0291
1.220000	55.258	113.2934
1.241000	54.961	112.1764
1.250000	54.830	111.6889
1.265000	54.609	110.8597
1.280000	54.384	110.0039
1.315000	53.836	107.8680
1.320000	53.756	107.5435
1.340000	53.426	106.1875
1.360000	53.085	104.7275
1.380000	52.732	103.1482
1.400000	52.366	101.4345
1.430000	51.793	98.5786
1.450000	51.393	96.4624
1.475000	50.866	93.5609
1.500000	50.264	90.4419
1.525000	49.591	87.1309
1.550000	48.861	83.6352
1.575000	48.090	79.9625
1.600000	47.294	76.1203
1.625000	46.489	72.1162
1.650000	45.689	67.9576
1.675000	44.911	63.6521
1.700000	44.170	59.2073
1.725000	43.482	54.6307
1.750000	42.862	49.9299
1.775000	42.325	45.1123
1.800000	41.889	40.1856
1.825000	41.567	35.1572
1.850000	41.369	29.8942
1.875000	41.279	24.1160
1.900000	41.286	17.9046
1.925000	41.377	11.3573
1.950000	41.540	4.5714
1.975000	41.762	-2.3557
2.000000	42.032	-9.3268
2.030000	42.402	-17.6130
2.060000	42.803	-25.6543
2.090000	43.212	-33.2824
2.120000	43.610	-40.3292
2.140000	43.859	-44.6211
2.180000	44.288	-52.0063
2.200000	44.456	-55.0015
2.240000	44.772	-59.8220
2.270000	45.014	-62.5973
2.300000	45.259	-64.7418
2.330000	45.503	-66.3362
2.360000	45.746	-67.4608
2.400000	46.062	-68.3688
2.430000	46.292	-68.7105
2.470000	46.583	-68.8666
2.500000	46.788	-68.8634
2.540000	47.039	-68.8519
2.580000	47.259	-68.9344
2.620000	47.431	-68.6339
2.650000	47.535	-68.1152
2.690000	47.649	-67.0993
2.720000	47.723	-66.1396
2.760000	47.817	-64.6630
2.800000	47.917	-63.0376
2.850000	48.070	-60.9234
2.900000	48.277	-58.8692
2.950000	48.560	-56.9801
3.000000	48.903	-54.8876
3.040000	49.210	-53.0617
3.070000	49.456	-51.6442
3.110000	49.799	-49.7400
3.150000	50.155	-47.8763
3.200000	50.611	-45.6979
3.250000	51.067	-43.8006
3.300000	51.514	-42.3046
3.350000	51.970	-41.1808
3.400000	52.446	-40.3264
3.450000	52.933	-39.7033
3.500000	53.420	-39.2736
3.550000	53.897	-38.9993
3.600000	54.355	-38.8424
3.650000	54.783	-38.7649
3.700000	55.179	-38.7836
3.750000	55.556	-38.9899
3.820000	56.054	-39.5261
3.870000	56.389	-40.0307
3.950000	56.890	-40.9365
4.000000	57.181	-41.5011
4.060000	57.507	-42.1392
4.120000	57.803	-42.8420
4.180000	58.072	-43.5990
4.250000	58.359	-44.5068
4.310000	58.586	-45.2682
4.370000	58.799	-45.9795
4.440000	59.033	-46.7278
4.500000	59.210	-47.3431
4.550000	59.345	-47.8353
4.620000	59.519	-48.4837
4.680000	59.660	-48.9929
4.750000	59.821	-49.5212
4.820000	59.978	-49.9661
4.870000	60.083	-50.2343
4.940000	60.221	-50.5546
5.000000	60.337	-50.7910
5.080000	60.493	-51.0727
5.150000	60.637	-51.3035
5.220000	60.783	-51.4827
5.300000	60.951	-51.6381
5.380000	61.122	-51.7823
5.450000	61.275	-51.9336
5.520000	61.432	-52.1331
5.600000	61.618	-52.3816
5.700000	61.856	-52.7279
5.800000	62.095	-53.1488
5.900000	62.327	-53.6792
6.000000	62.558	-54.3169
6.080000	62.741	-54.8889
6.150000	62.896	-55.4252
6.220000	63.044	-55.9873
6.300000	63.206	-56.6720
6.400000	63.400	-57.5995
6.500000	63.583	-58.5674
6.600000	63.754	-59.5337
6.700000	63.911	-60.5095
6.800000	64.056	-61.5003
6.900000	64.193	-62.4764
7.000000	64.326	-63.4119
7.100000	64.449	-64.3188
7.200000	64.567	-65.1996
7.300000	64.684	-66.0506
7.400000	64.802	-66.8652
7.500000	64.919	-67.6430
7.620000	65.059	-68.5497
7.750000	65.217	-69.5226
7.880000	65.381	-70.4705
8.000000	65.535	-71.3465
8.120000	65.691	-72.2478
8.250000	65.865	-73.2419
8.380000	66.039	-74.2579
8.500000	66.198	-75.2229
8.620000	66.355	-76.2143
8.750000	66.521	-77.3003
8.850000	66.645	-78.1367
9.000000	66.824	-79.4049
9.120000	66.962	-80.4090
9.250000	67.106	-81.4708
9.380000	67.244	-82.5146
9.500000	67.367	-83.4495
9.620000	67.488	-84.3494
9.750000	67.614	-85.2904
9.880000	67.739	-86.1968
10.000000	67.853	-87.0006
10.150000	67.993	-87.9640
10.300000	68.133	-88.8953
10.440000	68.262	-89.7329
10.600000	68.408	-90.6631
10.750000	68.543	-91.5170
10.900000	68.677	-92.3514
11.060000	68.817	-93.2272
11.200000	68.935	-93.9811
11.380000	69.083	-94.9334
11.500000	69.179	-95.5580
11.720000	69.347	-96.6806
11.800000	69.406	-97.0811
12.060000	69.590	-98.3552
12.200000	69.684	-99.0234
12.410000	69.818	-100.0027
12.500000	69.873	-100.4145
12.650000	69.962	-101.0898
12.800000	70.047	-101.7533
13.150000	70.236	-103.2605
13.200000	70.261	-103.4725
13.400000	70.362	-104.3112
13.600000	70.459	-105.1434
13.800000	70.551	-105.9716
14.000000	70.640	-106.8013
14.300000	70.764	-108.0503
14.500000	70.841	-108.8865
14.750000	70.932	-109.9282
15.000000	71.015	-110.9619
15.250000	71.094	-111.9778
15.500000	71.169	-112.9745
15.750000	71.242	-113.9530
16.000000	71.315	-114.9196
16.250000	71.388	-115.8831
16.500000	71.460	-116.8463
16.750000	71.531	-117.8119
17.000000	71.598	-118.7711
17.250000	71.663	-119.7165
17.500000	71.724	-120.6377
17.750000	71.784	-121.5269
18.000000	71.843	-122.3854
18.250000	71.904	-123.2150
18.500000	71.965	-124.0264
18.750000	72.026	-124.8251
19.000000	72.086	-125.6159
19.250000	72.143	-126.3980
19.500000	72.197	-127.1650
19.750000	72.247	-127.9116
20.000000	72.294	-128.6289
20.299999	72.346	-129.4493
20.600000	72.396	-130.2289
20.900000	72.445	-130.9780
21.200001	72.494	-131.7112
21.400000	72.525	-132.1981
21.799999	72.585	-133.1724
22.000000	72.613	-133.6602
22.400000	72.661	-134.6316
22.700001	72.693	-135.3491
23.000000	72.720	-136.0511
23.299999	72.744	-136.7355
23.600000	72.767	-137.4028
24.000000	72.798	-138.2706
24.299999	72.821	-138.9111
24.700001	72.853	-139.7607
25.000000	72.878	-140.4003
25.400000	72.911	-141.2594
25.799999	72.941	-142.1211
26.200001	72.968	-142.9722
26.500000	72.985	-143.5930
26.900000	73.007	-144.3872
27.200001	73.023	-144.9557
27.600000	73.046	-145.6834
28.000000	73.072	-146.3923
28.500000	73.104	-147.2748
29.000000	73.132	-148.1600
29.500000	73.152	-149.0273
30.000000	73.166	-149.8517
30.400000	73.175	-150.4761
30.700001	73.182	-150.9285
31.100000	73.190	-151.5193
31.500000	73.200	-152.1034
32.000000	73.211	-152.8306
32.500000	73.221	-153.5588
33.000000	73.231	-154.2895
33.500000	73.236	-155.0151
34.000000	73.238	-155.7171
34.500000	73.239	-156.3818
35.000000	73.244	-157.0152
35.500000	73.252	-157.6396
36.000000	73.260	-158.2726
36.500000	73.267	-158.9138
37.000000	73.270	-159.5493
37.500000	73.270	-160.1664
38.200001	73.266	-160.9948
38.700001	73.262	-161.5674
39.500000	73.254	-162.4547
40.000000	73.248	-162.9830
40.599998	73.242	-163.5903
41.200001	73.239	-164.1955
41.799999	73.238	-164.8197
42.500000	73.228	-165.5401
43.099998	73.216	-166.1039
43.700001	73.208	-166.6360
44.400002	73.203	-167.2807
45.000000	73.192	-167.8480
45.500000	73.180	-168.2987
46.200001	73.164	-168.9135
46.799999	73.149	-169.4709
47.500000	73.118	-170.1026
48.200001	73.089	-170.6252
48.700001	73.078	-170.9809
49.400002	73.071	-171.5668
50.000000	73.055	-172.1021
50.799999	73.029	-172.7129
51.500000	73.019	-173.2260
52.200001	73.004	-173.7826
53.000000	72.978	-174.3288
53.799999	72.964	-174.8235
54.500000	72.949	-175.3227
55.200001	72.921	-175.7645
56.000000	72.900	-176.1915
57.000000	72.879	-176.9021
58.000000	72.828	-177.5396
59.000000	72.802	-178.1051
60.000000	72.768	-178.8002
60.799999	72.734	-179.2357
61.500000	72.719	-179.5825
62.200001	72.708	-179.9971
63.000000	72.683	179.5121
64.000000	72.643	179.0333
65.000000	72.619	178.5874
66.000000	72.588	178.0598
67.000000	72.546	177.6140
68.000000	72.516	177.1742
69.000000	72.480	176.6667
70.000000	72.438	176.2235
71.000000	72.407	175.8156
72.000000	72.381	175.3434
73.000000	72.340	174.8605
74.000000	72.296	174.5015
75.000000	72.268	174.1574
76.199997	72.227	173.6526
77.500000	72.171	173.1944
78.800003	72.125	172.7693
80.000000	72.087	172.3271
81.199997	72.038	171.8515
82.500000	71.981	171.4418
83.800003	71.935	171.0612
85.000000	71.898	170.6794
86.199997	71.855	170.2600
87.500000	71.802	169.8536
88.500000	71.763	169.5815
90.000000	71.710	169.1917
91.199997	71.669	168.8820
92.500000	71.626	168.5447
93.800003	71.579	168.1951
95.000000	71.533	167.8898
96.199997	71.488	167.6100
97.500000	71.441	167.3067
98.800003	71.392	167.0179
100.000000	71.349	166.7778
101.500000	71.298	166.4392
103.000000	71.241	166.1212
104.400002	71.191	165.8503
106.000000	71.136	165.5502
107.500000	71.085	165.2855
109.000000	71.036	165.0111
110.599998	70.976	164.7473
112.000000	70.924	164.5380
113.800003	70.860	164.2553
115.000000	70.816	164.0684
117.199997	70.737	163.7331
118.000000	70.708	163.6201
120.599998	70.619	163.2491
122.000000	70.571	163.0825
124.099998	70.503	162.8500
125.000000	70.474	162.7573
126.500000	70.425	162.6004
128.000000	70.375	162.4515
131.500000	70.258	162.0943
132.000000	70.241	162.0441
134.000000	70.175	161.8665
136.000000	70.112	161.6838
138.000000	70.047	161.5201
140.000000	69.986	161.3691
143.000000	69.894	161.1723
145.000000	69.832	161.0492
147.500000	69.753	160.9196
150.000000	69.678	160.7986
152.500000	69.604	160.6780
155.000000	69.527	160.5752
157.500000	69.455	160.4767
160.000000	69.385	160.3931
162.500000	69.314	160.3217
165.000000	69.243	160.2559
167.500000	69.171	160.2062
170.000000	69.103	160.1647
172.500000	69.036	160.1327
175.000000	68.970	160.1116
177.500000	68.903	160.0927
180.000000	68.838	160.0755
182.500000	68.774	160.0665
185.000000	68.709	160.0792
187.500000	68.647	160.0986
190.000000	68.585	160.1175
192.500000	68.523	160.1459
195.000000	68.464	160.1902
197.500000	68.405	160.2411
200.000000	68.348	160.2822
203.000000	68.278	160.3440
206.000000	68.209	160.4099
209.000000	68.140	160.4958
212.000000	68.077	160.5789
214.000000	68.035	160.6312
218.000000	67.952	160.7574
220.000000	67.909	160.8323
224.000000	67.826	161.0006
227.000000	67.765	161.1096
230.000000	67.706	161.2321
233.000000	67.647	161.3553
236.000000	67.589	161.4849
240.000000	67.512	161.6673
243.000000	67.457	161.8180
247.000000	67.384	162.0200
250.000000	67.330	162.1695
254.000000	67.259	162.3805
258.000000	67.189	162.6176
262.000000	67.121	162.8308
265.000000	67.073	162.9953
269.000000	67.010	163.2345
272.000000	66.962	163.4168
276.000000	66.897	163.6598
280.000000	66.835	163.9085
285.000000	66.765	164.2365
290.000000	66.692	164.5494
295.000000	66.622	164.8595
300.000000	66.553	165.1989
304.000000	66.499	165.5007
307.000000	66.461	165.7042
311.000000	66.407	165.9532
315.000000	66.355	166.2307
320.000000	66.295	166.6190
325.000000	66.235	166.9754
330.000000	66.177	167.3157
335.000000	66.122	167.6905
340.000000	66.068	168.0568
345.000000	66.014	168.4178
350.000000	65.960	168.7747
355.000000	65.910	169.1453
360.000000	65.862	169.5356
365.000000	65.814	169.9255
370.000000	65.767	170.3140
375.000000	65.721	170.6966
382.000000	65.659	171.2291
387.000000	65.620	171.6336
395.000000	65.553	172.2485
400.000000	65.514	172.6369
406.000000	65.468	173.1128
412.000000	65.419	173.5717
418.000000	65.378	174.0588
425.000000	65.327	174.6174
431.000000	65.285	175.0792
437.000000	65.247	175.5504
444.000000	65.206	176.1151
450.000000	65.170	176.5827
455.000000	65.142	176.9693
462.000000	65.101	177.5229
468.000000	65.070	178.0040
475.000000	65.035	178.5768
482.000000	65.002	179.1314
487.000000	64.974	179.5347
494.000000	64.945	-179.8994
500.000000	64.921	-179.4348
508.000000	64.886	-178.7996
515.000000	64.858	-178.2189
522.000000	64.828	-177.6519
530.000000	64.802	-177.0163
538.000000	64.775	-176.3954
545.000000	64.751	-175.8243
552.000000	64.730	-175.2631
560.000000	64.708	-174.6210
570.000000	64.682	-173.8288
580.000000	64.655	-173.0613
590.000000	64.634	-172.2647
600.000000	64.613	-171.5112
608.000000	64.597	-170.9158
615.000000	64.583	-170.3834
622.000000	64.564	-169.8609
630.000000	64.541	-169.2776
640.000000	64.503	-168.5129
650.000000	64.454	-167.6317
660.000000	64.413	-166.5961
670.000000	64.399	-165.4796
680.000000	64.407	-164.4150
690.000000	64.428	-163.4236
700.000000	64.448	-162.4866
710.000000	64.469	-161.5880
720.000000	64.492	-160.7212
730.000000	64.514	-159.8585
740.000000	64.534	-159.0222
750.000000	64.558	-158.1656
762.000000	64.597	-157.1317
775.000000	64.637	-156.0140
788.000000	64.678	-154.9041
800.000000	64.719	-153.9039
812.000000	64.766	-152.8635
825.000000	64.820	-151.7854
838.000000	64.882	-150.6895
850.000000	64.941	-149.6647
862.000000	65.006	-148.6847
875.000000	65.082	-147.6219
885.000000	65.144	-146.8329
900.000000	65.245	-145.6586
912.000000	65.331	-144.7192
925.000000	65.428	-143.7446
938.000000	65.530	-142.8072
950.000000	65.622	-141.9509
962.000000	65.718	-141.1153
975.000000	65.825	-140.2113
988.000000	65.935	-139.3082
1000.000000	66.041	-138.4408
1015.000000	66.201	-137.3567
1030.000000	66.387	-136.4308
1044.000000	66.562	-135.7894
1060.000000	66.746	-135.2207
1075.000000	66.896	-134.7146
1090.000000	67.041	-134.1682
1106.000000	67.201	-133.6110
1120.000000	67.341	-133.1731
1138.000000	67.517	-132.6452
1150.000000	67.631	-132.3265
1172.000000	67.836	-131.7901
1180.000000	67.910	-131.6080
1206.000000	68.144	-131.0661
1220.000000	68.267	-130.7885
1241.000000	68.448	-130.3977
1250.000000	68.524	-130.2409
1265.000000	68.649	-129.9784
1280.000000	68.773	-129.7280
1315.000000	69.054	-129.1968
1320.000000	69.094	-129.1239
1340.000000	69.252	-128.8315
1360.000000	69.410	-128.5488
1380.000000	69.566	-128.2672
1400.000000	69.721	-127.9979
1430.000000	69.955	-127.6231
1450.000000	70.114	-127.3763
1475.000000	70.312	-127.0917
1500.000000	70.514	-126.8268
1525.000000	70.717	-126.5800
1550.000000	70.926	-126.3725
1575.000000	71.135	-126.2035
1600.000000	71.350	-126.0761
1625.000000	71.569	-125.9922
1650.000000	71.792	-125.9514
1675.000000	72.017	-125.9771
1700.000000	72.246	-126.0597
1725.000000	72.479	-126.2067
1750.000000	72.714	-126.4439
1775.000000	72.951	-126.7603
1800.000000	73.187	-127.1605
1825.000000	73.424	-127.6542
1850.000000	73.663	-128.2627
1875.000000	73.899	-128.9959
1900.000000	74.131	-129.8187
1925.000000	74.357	-130.7573
1950.000000	74.575	-131.8455
1975.000000	74.785	-133.0515
2000.000000	74.985	-134.3672
2030.000000	75.204	-136.1167
2060.000000	75.403	-138.0127
2090.000000	75.580	-140.0517
2120.000000	75.729	-142.2334
2140.000000	75.815	-143.7491
2180.000000	75.942	-146.9182
2200.000000	75.983	-148.5531
2240.000000	76.018	-151.8248
2270.000000	76.005	-154.2691
2300.000000	75.959	-156.6559
2330.000000	75.882	-158.9529
2360.000000	75.778	-161.1288
2400.000000	75.603	-163.8089
2430.000000	75.448	-165.6185
2470.000000	75.217	-167.7608
2500.000000	75.031	-169.1637
2540.000000	74.770	-170.7706
2580.000000	74.503	-172.0734
2620.000000	74.230	-173.1023
2650.000000	74.026	-173.7037
2690.000000	73.760	-174.2934
2720.000000	73.565	-174.5995
2760.000000	73.313	-174.8355
2800.000000	73.073	-174.9023
2850.000000	72.789	-174.7776
2900.000000	72.524	-174.4448
2950.000000	72.281	-173.9306
3000.000000	72.060	-173.2703
3040.000000	71.902	-172.6595
3070.000000	71.792	-172.1533
3110.000000	71.657	-171.4222
3150.000000	71.534	-170.6378
3200.000000	71.399	-169.5849
3250.000000	71.284	-168.4708
3300.000000	71.191	-167.3120
3350.000000	71.118	-166.1164
3400.000000	71.067	-164.8942
3450.000000	71.032	-163.6479
3500.000000	71.018	-162.3801
3550.000000	71.022	-161.1037
3600.000000	71.044	-159.8300
3650.000000	71.086	-158.5722
3700.000000	71.147	-157.3145
3750.000000	71.225	-156.0797
3820.000000	71.366	-154.3710
3870.000000	71.492	-153.1883
3950.000000	71.736	-151.3593
4000.000000	71.918	-150.2752
4060.000000	72.173	-149.0570
4120.000000	72.471	-147.9910
4180.000000	72.815	-147.1719
4250.000000	73.276	-146.6842
4310.000000	73.709	-146.8585
4370.000000	74.156	-147.7709
4440.000000	74.627	-149.9444
4500.000000	74.920	-152.6472
4550.000000	75.049	-155.1654
4620.000000	75.055	-158.3322
4680.000000	74.965	-160.1284
4750.000000	74.871	-161.0077
4820.000000	74.887	-161.0815
4870.000000	74.985	-161.0444
4940.000000	75.233	-161.4315
5000.000000	75.512	-162.5083
5080.000000	75.892	-165.2738
5150.000000	76.151	-168.9217
5220.000000	76.276	-173.4594
5300.000000	76.208	-179.1690
5380.000000	75.906	175.3013
5450.000000	75.472	171.1556
5520.000000	74.912	167.9744
5600.000000	74.160	165.8326
5700.000000	73.186	166.2014
5800.000000	72.644	169.1464
5900.000000	72.491	169.5106
6000.000000	71.978	168.4964
6080.000000	71.463	169.0567
6150.000000	71.048	170.2754
6220.000000	70.682	171.8732
6300.000000	70.324	173.9979
6400.000000	69.955	176.9534
6500.000000	69.667	-179.8852
6600.000000	69.456	-176.5957
6700.000000	69.312	-173.2367
6800.000000	69.239	-169.7969
6900.000000	69.237	-166.2848
7000.000000	69.314	-162.7068
7100.000000	69.483	-159.1630
7200.000000	69.754	-155.7937
7300.000000	70.121	-152.7109
7400.000000	70.585	-150.0106
7500.000000	71.148	-147.8236
7620.000000	71.957	-146.1116
7750.000000	72.987	-145.9166
7880.000000	74.120	-148.2546
8000.000000	75.125	-153.5589
8120.000000	75.854	-162.2840
8250.000000	76.041	-174.3521
8380.000000	75.507	174.2014
8500.000000	74.567	166.7567
8620.000000	73.474	162.7781
8750.000000	72.349	161.5515
8850.000000	71.611	162.0812
9000.000000	70.768	164.2024
9120.000000	70.315	166.3486
9250.000000	70.014	168.5399
9380.000000	69.862	170.2393
9500.000000	69.795	171.2928
9620.000000	69.764	171.9173
9750.000000	69.758	172.2474
9880.000000	69.785	172.3176
10000.000000	69.855	172.1335
10150.000000	70.006	171.2289
10300.000000	70.170	169.4826
10440.000000	70.343	167.0338
10600.000000	70.494	162.8274
10750.000000	70.481	157.6734
10900.000000	70.250	151.8931
11060.000000	69.743	145.8793
11200.000000	69.115	141.3813
11380.000000	68.187	137.0577
11500.000000	67.572	134.8884
11720.000000	66.506	131.5002
11800.000000	66.153	130.2422
12060.000000	64.748	124.0277
12200.000000	63.794	122.5700
12410.000000	62.689	119.3318
12500.000000	62.151	116.8285
12650.000000	60.969	112.2188
12800.000000	59.432	108.4199
13150.000000	54.972	106.8404
13200.000000	54.297	107.5420
13400.000000	51.636	112.4100
13600.000000	49.086	120.1259
13800.000000	46.735	130.3602
14000.000000	44.644	142.5657
14300.000000	42.180	162.7899
14500.000000	40.841	177.1286
14750.000000	39.641	-164.0420
15000.000000	38.906	-145.5104
15250.000000	38.547	-127.4605
15500.000000	38.585	-110.0797
15750.000000	38.990	-93.6796
16000.000000	39.613	-79.3573
16250.000000	40.273	-65.9148
16500.000000	41.235	-52.1066
16750.000000	42.599	-39.6679
17000.000000	44.640	-30.3670
17250.000000	46.104	-26.9499
17500.000000	47.290	-23.0699
17750.000000	48.427	-20.0123
18000.000000	49.615	-16.3072
18250.000000	51.274	-13.9357
18500.000000	53.022	-17.3565
18750.000000	54.112	-26.3442
19000.000000	54.299	-36.6720
19250.000000	53.893	-45.0060
19500.000000	53.328	-51.6272
19750.000000	52.768	-58.9692
