* Measurement data measured by REW V5.20.13
* Source: EXCL: Microphone (USB Sound Device        ), MICROPHONE (Master Volume), L, volume: 0.130
* Format: 256k Log Swept Sine, 1 sweep at -6.0 dBFS with no timing reference
* Dated: Oct 26, 2023 9:04:44 PM
* REW Settings:
*  C-weighting compensation: Off
*  Target level: 75.0 dB
* Note: ; 
* Measurement: Glamdring Foam L
* Smoothing: None
* Frequency Step: 1/48 octave
* Start Frequency: 1.000 Hz
*
* Freq(Hz)	SPL(dB)	Phase(degrees)
1.000000	60.429	145.4230
1.015000	60.331	144.7438
1.030000	60.231	144.0500
1.044000	60.134	143.3885
1.060000	60.020	142.6149
1.075000	59.910	141.8718
1.090000	59.797	141.1104
1.106000	59.672	140.2816
1.120000	59.560	139.5663
1.138000	59.413	138.6625
1.150000	59.312	138.0671
1.172000	59.123	136.9831
1.180000	59.053	136.5895
1.206000	58.820	135.3031
1.220000	58.691	134.6010
1.241000	58.493	133.5271
1.250000	58.407	133.0570
1.265000	58.261	132.2576
1.280000	58.113	131.4347
1.315000	57.758	129.4031
1.320000	57.706	129.0981
1.340000	57.497	127.8353
1.360000	57.284	126.4979
1.380000	57.066	125.0768
1.400000	56.845	123.5632
1.430000	56.507	121.1000
1.450000	56.278	119.3164
1.475000	55.983	116.9178
1.500000	55.655	114.3729
1.525000	55.296	111.6963
1.550000	54.912	108.8918
1.575000	54.511	105.9630
1.600000	54.100	102.9138
1.625000	53.687	99.7478
1.650000	53.279	96.4688
1.675000	52.884	93.0804
1.700000	52.509	89.5865
1.725000	52.162	85.9907
1.750000	51.849	82.2968
1.775000	51.579	78.5085
1.800000	51.359	74.6295
1.825000	51.196	70.6635
1.850000	51.092	66.5314
1.875000	51.034	62.0676
1.900000	51.019	57.3214
1.925000	51.042	52.3509
1.950000	51.099	47.2144
1.975000	51.187	41.9701
2.000000	51.302	36.6762
2.030000	51.470	30.3401
2.060000	51.664	24.1171
2.090000	51.879	18.1077
2.120000	52.107	12.4126
2.140000	52.263	8.8401
2.180000	52.576	2.3676
2.200000	52.730	-0.4740
2.240000	53.076	-5.5476
2.270000	53.377	-8.9302
2.300000	53.706	-11.9899
2.330000	54.056	-14.7621
2.360000	54.421	-17.2823
2.400000	54.917	-20.3118
2.430000	55.287	-22.3817
2.470000	55.767	-24.9394
2.500000	56.107	-26.7519
2.540000	56.520	-29.0949
2.580000	56.876	-31.3989
2.620000	57.198	-33.4541
2.650000	57.423	-34.8137
2.690000	57.703	-36.4133
2.720000	57.900	-37.4732
2.760000	58.147	-38.7291
2.800000	58.380	-39.8389
2.850000	58.655	-41.0762
2.900000	58.919	-42.2136
2.950000	59.176	-43.3016
3.000000	59.408	-44.2125
3.040000	59.576	-44.8030
3.070000	59.695	-45.1749
3.110000	59.845	-45.5877
3.150000	59.990	-45.9192
3.200000	60.167	-46.2416
3.250000	60.346	-46.4883
3.300000	60.533	-46.6877
3.350000	60.721	-46.7820
3.400000	60.904	-46.7401
3.450000	61.085	-46.5957
3.500000	61.267	-46.3822
3.550000	61.451	-46.1331
3.600000	61.641	-45.8820
3.650000	61.838	-45.6623
3.700000	62.046	-45.4683
3.750000	62.262	-45.2332
3.820000	62.573	-44.8695
3.870000	62.801	-44.6144
3.950000	63.168	-44.2737
4.000000	63.397	-44.1365
4.060000	63.671	-44.0737
4.120000	63.950	-44.0836
4.180000	64.233	-44.1572
4.250000	64.561	-44.3217
4.310000	64.837	-44.5285
4.370000	65.103	-44.7944
4.440000	65.400	-45.1873
4.500000	65.648	-45.6112
4.550000	65.850	-46.0148
4.620000	66.123	-46.6363
4.680000	66.348	-47.2028
4.750000	66.596	-47.8787
4.820000	66.829	-48.5772
4.870000	66.986	-49.1104
4.940000	67.195	-49.8878
5.000000	67.365	-50.5663
5.080000	67.579	-51.4612
5.150000	67.756	-52.2128
5.220000	67.921	-52.9582
5.300000	68.094	-53.8050
5.380000	68.256	-54.6317
5.450000	68.392	-55.3267
5.520000	68.526	-55.9854
5.600000	68.669	-56.6980
5.700000	68.838	-57.5406
5.800000	69.003	-58.3419
5.900000	69.169	-59.1107
6.000000	69.334	-59.8261
6.080000	69.464	-60.3752
6.150000	69.579	-60.8537
6.220000	69.695	-61.3428
6.300000	69.830	-61.9097
6.400000	70.001	-62.6152
6.500000	70.172	-63.3380
6.600000	70.342	-64.1001
6.700000	70.511	-64.9057
6.800000	70.680	-65.7446
6.900000	70.845	-66.6127
7.000000	71.003	-67.5080
7.100000	71.157	-68.4414
7.200000	71.306	-69.3984
7.300000	71.448	-70.3591
7.400000	71.584	-71.3165
7.500000	71.713	-72.2838
7.620000	71.860	-73.4351
7.750000	72.014	-74.6429
7.880000	72.159	-75.8188
8.000000	72.290	-76.8744
8.120000	72.420	-77.8949
8.250000	72.559	-78.9589
8.380000	72.697	-79.9969
8.500000	72.827	-80.9423
8.620000	72.958	-81.8679
8.750000	73.100	-82.8656
8.850000	73.209	-83.6399
9.000000	73.374	-84.8038
9.120000	73.504	-85.7389
9.250000	73.641	-86.7607
9.380000	73.775	-87.7903
9.500000	73.894	-88.7351
9.620000	74.010	-89.6711
9.750000	74.132	-90.6788
9.880000	74.240	-91.6630
10.000000	74.323	-92.5448
10.150000	74.409	-93.6164
10.300000	74.487	-94.6449
10.440000	74.551	-95.5629
10.600000	74.620	-96.5735
10.750000	74.686	-97.4874
10.900000	74.750	-98.3707
11.060000	74.818	-99.2988
11.200000	74.877	-100.0963
11.380000	74.950	-101.1123
11.500000	74.996	-101.7874
11.720000	75.076	-103.0139
11.800000	75.103	-103.4563
12.060000	75.180	-104.8767
12.200000	75.215	-105.6226
12.410000	75.262	-106.7166
12.500000	75.287	-107.1739
12.650000	75.335	-107.9207
12.800000	75.384	-108.6512
13.150000	75.489	-110.2977
13.200000	75.503	-110.5285
13.400000	75.557	-111.4406
13.600000	75.607	-112.3417
13.800000	75.654	-113.2347
14.000000	75.696	-114.1199
14.300000	75.753	-115.4326
14.500000	75.787	-116.2959
14.750000	75.825	-117.3625
15.000000	75.860	-118.4157
15.250000	75.892	-119.4589
15.500000	75.921	-120.4931
15.750000	75.947	-121.5179
16.000000	75.973	-122.5313
16.250000	76.003	-123.5303
16.500000	76.035	-124.5142
16.750000	76.065	-125.4833
17.000000	76.095	-126.4407
17.250000	76.124	-127.3871
17.500000	76.151	-128.3232
17.750000	76.176	-129.2428
18.000000	76.199	-130.1404
18.250000	76.220	-131.0099
18.500000	76.240	-131.8465
18.750000	76.260	-132.6541
19.000000	76.281	-133.4362
19.250000	76.302	-134.2045
19.500000	76.324	-134.9638
19.750000	76.344	-135.7174
20.000000	76.361	-136.4620
20.299999	76.379	-137.3316
20.600000	76.393	-138.1647
20.900000	76.405	-138.9557
21.200001	76.417	-139.7113
21.400000	76.427	-140.2067
21.799999	76.446	-141.1996
22.000000	76.456	-141.7051
22.400000	76.469	-142.7366
22.700001	76.471	-143.5125
23.000000	76.468	-144.2687
23.299999	76.461	-144.9914
23.600000	76.453	-145.6786
24.000000	76.445	-146.5514
24.299999	76.441	-147.1907
24.700001	76.440	-148.0432
25.000000	76.440	-148.6879
25.400000	76.439	-149.5480
25.799999	76.435	-150.3910
26.200001	76.430	-151.2004
26.500000	76.427	-151.7822
26.900000	76.425	-152.5293
27.200001	76.425	-153.0767
27.600000	76.429	-153.8016
28.000000	76.433	-154.5302
28.500000	76.434	-155.4467
29.000000	76.430	-156.3537
29.500000	76.419	-157.2314
30.000000	76.403	-158.0681
30.400000	76.389	-158.7098
30.700001	76.378	-159.1787
31.100000	76.363	-159.7925
31.500000	76.347	-160.3951
32.000000	76.327	-161.1291
32.500000	76.308	-161.8413
33.000000	76.291	-162.5472
33.500000	76.276	-163.2653
34.000000	76.258	-163.9881
34.500000	76.237	-164.6817
35.000000	76.216	-165.3274
35.500000	76.201	-165.9483
36.000000	76.188	-166.5795
36.500000	76.174	-167.2208
37.000000	76.155	-167.8404
37.500000	76.135	-168.4249
38.200001	76.110	-169.2233
38.700001	76.090	-169.7935
39.500000	76.054	-170.6510
40.000000	76.036	-171.1610
40.599998	76.018	-171.8026
41.200001	75.994	-172.4719
41.799999	75.961	-173.0934
42.500000	75.928	-173.7307
43.099998	75.908	-174.2757
43.700001	75.887	-174.8476
44.400002	75.859	-175.4996
45.000000	75.836	-176.0385
45.500000	75.816	-176.4937
46.200001	75.783	-177.1152
46.799999	75.753	-177.5935
47.500000	75.728	-178.1363
48.200001	75.702	-178.7280
48.700001	75.679	-179.1492
49.400002	75.644	-179.6829
50.000000	75.620	179.8776
50.799999	75.589	179.2656
51.500000	75.558	178.7464
52.200001	75.528	178.2498
53.000000	75.494	177.6802
53.799999	75.457	177.1385
54.500000	75.426	176.6884
55.200001	75.397	176.2346
56.000000	75.364	175.7109
57.000000	75.319	175.0657
58.000000	75.275	174.4755
59.000000	75.236	173.8877
60.000000	75.190	173.2997
60.799999	75.154	172.8917
61.500000	75.128	172.5259
62.200001	75.097	172.1399
63.000000	75.058	171.7336
64.000000	75.011	171.2443
65.000000	74.962	170.7412
66.000000	74.915	170.2657
67.000000	74.867	169.7679
68.000000	74.820	169.3154
69.000000	74.775	168.8332
70.000000	74.722	168.4040
71.000000	74.682	167.9990
72.000000	74.632	167.5534
73.000000	74.587	167.2122
74.000000	74.548	166.7726
75.000000	74.492	166.4122
76.199997	74.445	166.0304
77.500000	74.395	165.5627
78.800003	74.334	165.0155
80.000000	74.274	164.6759
81.199997	74.220	164.2027
82.500000	74.153	163.9083
83.800003	74.107	163.4399
85.000000	74.046	163.1087
86.199997	73.996	162.7254
87.500000	73.935	162.4010
88.500000	73.895	162.1153
90.000000	73.832	161.7624
91.199997	73.785	161.4434
92.500000	73.731	161.1521
93.800003	73.674	160.8333
95.000000	73.619	160.6097
96.199997	73.571	160.3636
97.500000	73.513	160.0765
98.800003	73.460	159.8209
100.000000	73.410	159.5574
101.500000	73.350	159.2720
103.000000	73.290	159.0072
104.400002	73.236	158.7352
106.000000	73.171	158.4645
107.500000	73.105	158.2086
109.000000	73.054	157.9906
110.599998	72.988	157.7289
112.000000	72.940	157.5300
113.800003	72.869	157.3259
115.000000	72.826	157.1608
117.199997	72.740	156.8918
118.000000	72.706	156.7948
120.599998	72.608	156.4856
122.000000	72.561	156.3358
124.099998	72.488	156.1099
125.000000	72.455	156.0231
126.500000	72.406	155.9069
128.000000	72.353	155.8024
131.500000	72.249	155.4760
132.000000	72.232	155.4243
134.000000	72.182	155.2747
136.000000	72.120	155.1717
138.000000	72.055	155.0718
140.000000	71.993	154.9654
143.000000	71.909	154.7567
145.000000	71.856	154.6605
147.500000	71.784	154.5459
150.000000	71.710	154.4792
152.500000	71.642	154.3840
155.000000	71.582	154.2859
157.500000	71.514	154.2512
160.000000	71.445	154.2291
162.500000	71.360	154.1875
165.000000	71.288	154.1484
167.500000	71.214	154.1252
170.000000	71.142	154.0864
172.500000	71.067	154.0930
175.000000	70.994	154.0945
177.500000	70.925	154.0990
180.000000	70.859	154.1067
182.500000	70.791	154.1173
185.000000	70.720	154.1183
187.500000	70.657	154.2014
190.000000	70.587	154.2572
192.500000	70.527	154.3054
195.000000	70.465	154.3148
197.500000	70.404	154.3786
200.000000	70.339	154.4496
203.000000	70.272	154.5222
206.000000	70.206	154.5923
209.000000	70.147	154.7118
212.000000	70.091	154.8406
214.000000	70.045	154.8553
218.000000	69.961	154.9963
220.000000	69.923	155.0934
224.000000	69.846	155.2451
227.000000	69.793	155.3716
230.000000	69.733	155.4772
233.000000	69.683	155.5930
236.000000	69.628	155.7544
240.000000	69.560	155.9716
243.000000	69.504	156.1077
247.000000	69.436	156.2518
250.000000	69.390	156.3907
254.000000	69.333	156.6204
258.000000	69.275	156.8600
262.000000	69.209	156.9960
265.000000	69.166	157.1924
269.000000	69.112	157.3889
272.000000	69.068	157.5688
276.000000	69.012	157.8373
280.000000	68.962	158.0309
285.000000	68.900	158.3073
290.000000	68.834	158.5715
295.000000	68.779	158.9525
300.000000	68.716	159.2462
304.000000	68.672	159.4827
307.000000	68.647	159.6893
311.000000	68.595	159.8788
315.000000	68.549	160.1168
320.000000	68.504	160.4020
325.000000	68.453	160.7334
330.000000	68.405	161.0505
335.000000	68.352	161.4055
340.000000	68.302	161.7274
345.000000	68.264	162.0604
350.000000	68.217	162.2845
355.000000	68.184	162.6391
360.000000	68.127	162.9686
365.000000	68.094	163.2808
370.000000	68.059	163.6230
375.000000	68.020	163.9543
382.000000	67.971	164.3496
387.000000	67.936	164.7066
395.000000	67.873	165.2123
400.000000	67.851	165.5404
406.000000	67.817	165.9449
412.000000	67.776	166.3072
418.000000	67.747	166.6943
425.000000	67.709	167.1075
431.000000	67.671	167.5356
437.000000	67.647	167.9169
444.000000	67.600	168.3569
450.000000	67.580	168.7257
455.000000	67.564	169.0215
462.000000	67.536	169.4555
468.000000	67.506	169.8292
475.000000	67.478	170.3394
482.000000	67.452	170.7602
487.000000	67.428	171.0726
494.000000	67.419	171.4991
500.000000	67.392	171.8622
508.000000	67.372	172.3456
515.000000	67.358	172.7272
522.000000	67.329	173.2168
530.000000	67.313	173.7239
538.000000	67.300	174.1499
545.000000	67.282	174.6396
552.000000	67.275	175.0178
560.000000	67.247	175.5482
570.000000	67.236	176.1615
580.000000	67.221	176.7284
590.000000	67.202	177.3612
600.000000	67.189	177.9319
608.000000	67.193	178.4512
615.000000	67.180	178.8466
622.000000	67.180	179.2766
630.000000	67.172	179.7247
640.000000	67.170	-179.6211
650.000000	67.172	-179.0702
660.000000	67.167	-178.3846
670.000000	67.168	-177.7661
680.000000	67.170	-177.2175
690.000000	67.180	-176.6056
700.000000	67.187	-176.0188
710.000000	67.190	-175.3539
720.000000	67.207	-174.7668
730.000000	67.219	-174.1254
740.000000	67.230	-173.5340
750.000000	67.245	-172.9810
762.000000	67.256	-172.2146
775.000000	67.306	-171.4086
788.000000	67.329	-170.6282
800.000000	67.367	-169.8261
812.000000	67.397	-169.2068
825.000000	67.435	-168.3818
838.000000	67.464	-167.6413
850.000000	67.502	-166.9445
862.000000	67.546	-166.2657
875.000000	67.590	-165.5807
885.000000	67.645	-165.0053
900.000000	67.701	-164.2740
912.000000	67.768	-163.5981
925.000000	67.835	-162.8640
938.000000	67.903	-162.2664
950.000000	67.968	-161.7278
962.000000	68.041	-161.2023
975.000000	68.136	-160.6479
988.000000	68.205	-160.0577
1000.000000	68.290	-159.8016
1015.000000	68.400	-159.1653
1030.000000	68.514	-158.6984
1044.000000	68.629	-158.2471
1060.000000	68.750	-157.8668
1075.000000	68.863	-157.5724
1090.000000	68.985	-157.2667
1106.000000	69.111	-156.9695
1120.000000	69.208	-156.7640
1138.000000	69.346	-156.5444
1150.000000	69.430	-156.4384
1172.000000	69.579	-156.2047
1180.000000	69.634	-156.1928
1206.000000	69.805	-156.0867
1220.000000	69.903	-156.0480
1241.000000	70.018	-156.0195
1250.000000	70.068	-155.9678
1265.000000	70.116	-155.9369
1280.000000	70.181	-155.9735
1315.000000	70.294	-155.9602
1320.000000	70.315	-155.9450
1340.000000	70.383	-155.9529
1360.000000	70.437	-155.9944
1380.000000	70.495	-156.0196
1400.000000	70.551	-156.0545
1430.000000	70.645	-156.0644
1450.000000	70.672	-156.0818
1475.000000	70.752	-156.0521
1500.000000	70.814	-156.1496
1525.000000	70.888	-156.1797
1550.000000	70.960	-156.2439
1575.000000	71.022	-156.3623
1600.000000	71.087	-156.5135
1625.000000	71.191	-156.6855
1650.000000	71.288	-156.8519
1675.000000	71.381	-157.0712
1700.000000	71.463	-157.2450
1725.000000	71.551	-157.4661
1750.000000	71.633	-157.6782
1775.000000	71.728	-157.8495
1800.000000	71.810	-158.0759
1825.000000	71.890	-158.2266
1850.000000	71.974	-158.4612
1875.000000	72.057	-158.7825
1900.000000	72.148	-158.9738
1925.000000	72.228	-159.2894
1950.000000	72.307	-159.5995
1975.000000	72.396	-159.9307
2000.000000	72.463	-160.4549
2030.000000	72.558	-160.7896
2060.000000	72.639	-161.2697
2090.000000	72.720	-161.7264
2120.000000	72.800	-162.2692
2140.000000	72.860	-162.6326
2180.000000	72.963	-163.4966
2200.000000	73.018	-163.9932
2240.000000	73.109	-164.9509
2270.000000	73.181	-165.8730
2300.000000	73.229	-166.8522
2330.000000	73.283	-168.0037
2360.000000	73.305	-169.4447
2400.000000	73.276	-171.3848
2430.000000	73.217	-172.8737
2470.000000	73.052	-175.0511
2500.000000	72.796	-177.9799
2540.000000	71.641	-178.3133
2580.000000	70.852	-172.2980
2620.000000	70.760	-166.7704
2650.000000	70.979	-165.5305
2690.000000	71.221	-165.2832
2720.000000	71.303	-165.3410
2760.000000	71.363	-165.3702
2800.000000	71.420	-165.2434
2850.000000	71.440	-165.1741
2900.000000	71.434	-164.9813
2950.000000	71.447	-164.6963
3000.000000	71.447	-164.2958
3040.000000	71.450	-164.2138
3070.000000	71.457	-163.9827
3110.000000	71.470	-163.7472
3150.000000	71.478	-163.4716
3200.000000	71.483	-163.0633
3250.000000	71.497	-162.6168
3300.000000	71.528	-162.2036
3350.000000	71.561	-161.8236
3400.000000	71.603	-161.2757
3450.000000	71.656	-160.8944
3500.000000	71.699	-160.5134
3550.000000	71.747	-160.0423
3600.000000	71.790	-159.5952
3650.000000	71.861	-159.1137
3700.000000	71.950	-158.7454
3750.000000	72.039	-158.3006
3820.000000	72.184	-157.9149
3870.000000	72.287	-157.8172
3950.000000	72.457	-157.8253
4000.000000	72.535	-158.2802
4060.000000	72.566	-158.4113
4120.000000	72.559	-158.3582
4180.000000	72.601	-157.5330
4250.000000	72.832	-156.6082
4310.000000	73.081	-156.8105
4370.000000	73.327	-157.7837
4440.000000	73.531	-159.8550
4500.000000	73.641	-162.4354
4550.000000	73.660	-165.0381
4620.000000	73.367	-169.1590
4680.000000	73.286	-170.3734
4750.000000	72.791	-176.6115
4820.000000	70.210	-156.8880
4870.000000	72.564	-150.9080
4940.000000	73.992	-149.3473
5000.000000	74.069	-149.4641
5080.000000	74.392	-151.4282
5150.000000	74.505	-152.6979
5220.000000	74.632	-153.8728
5300.000000	74.661	-155.8150
5380.000000	74.663	-154.9748
5450.000000	74.918	-157.0939
5520.000000	74.681	-157.3251
5600.000000	74.941	-156.0702
5700.000000	75.337	-156.6480
5800.000000	75.579	-158.8122
5900.000000	75.710	-160.7241
6000.000000	75.869	-162.8534
6080.000000	75.921	-164.8927
6150.000000	75.931	-166.8356
6220.000000	75.892	-168.9450
6300.000000	75.760	-171.2117
6400.000000	75.556	-173.7025
6500.000000	75.142	-174.3359
6600.000000	75.196	-172.1597
6700.000000	75.454	-172.4687
6800.000000	75.572	-174.2718
6900.000000	75.556	-176.5306
7000.000000	75.380	-179.0027
7100.000000	74.868	179.0350
7200.000000	73.891	-177.2793
7300.000000	75.013	-168.5629
7400.000000	75.918	-169.4510
7500.000000	76.314	-171.7086
7620.000000	76.660	-174.8441
7750.000000	76.886	-178.8074
7880.000000	76.964	177.5726
8000.000000	77.033	173.7063
8120.000000	76.888	169.7951
8250.000000	76.682	165.7450
8380.000000	76.487	161.1311
8500.000000	76.171	156.2444
8620.000000	75.730	150.8385
8750.000000	74.952	144.1520
8850.000000	73.863	139.2618
9000.000000	71.530	144.1420
9120.000000	70.473	152.2197
9250.000000	70.524	158.8547
9380.000000	70.562	160.7257
9500.000000	70.390	161.8275
9620.000000	70.223	163.1824
9750.000000	70.034	164.8479
9880.000000	70.040	167.2721
10000.000000	70.174	168.8599
10150.000000	70.374	169.5811
10300.000000	70.879	171.9941
10440.000000	72.027	169.5798
10600.000000	72.322	159.7778
10750.000000	72.007	153.8500
10900.000000	71.805	148.5635
11060.000000	71.346	140.7544
11200.000000	70.296	132.5350
11380.000000	66.416	137.3247
11500.000000	66.120	150.9979
11720.000000	66.453	157.9681
11800.000000	66.585	158.7986
12060.000000	66.730	159.8458
12200.000000	66.724	160.4753
12410.000000	66.864	160.8564
12500.000000	67.000	160.5147
12650.000000	67.146	158.9783
12800.000000	67.162	155.8233
13150.000000	65.714	140.4570
13200.000000	65.105	138.0797
13400.000000	61.748	134.6446
13600.000000	59.141	148.6534
13800.000000	58.474	159.2506
14000.000000	57.892	167.0692
14300.000000	57.609	-179.9894
14500.000000	57.743	-174.3403
14750.000000	57.792	-167.9388
15000.000000	58.237	-164.1811
15250.000000	58.330	-163.2478
15500.000000	58.346	-161.1489
15750.000000	58.289	-159.8083
16000.000000	58.128	-158.1497
16250.000000	57.917	-156.0404
16500.000000	57.707	-141.7320
16750.000000	59.529	-132.5579
17000.000000	60.991	-130.9962
17250.000000	62.403	-132.3121
17500.000000	63.628	-135.7715
17750.000000	64.561	-141.1731
18000.000000	65.212	-148.3903
18250.000000	65.402	-156.7297
18500.000000	65.118	-165.4003
18750.000000	64.227	-173.0784
19000.000000	62.895	-178.6765
19250.000000	61.197	-179.2321
19500.000000	59.733	-176.8528
19750.000000	58.876	-173.9446
