* Measurement data measured by REW V5.20.13
* Source: C:\Users\marcu\OneDrive\Desktop\audio_db\Simgot EA500 - n.Red Stock - Foam R.txt
* Format: Comma/Tab/Space delimited data
* Dated: May 29, 2023 8:27:35 AM
* REW Settings:
*  C-weighting compensation: Off
*  Target level: 75.0 dB
* Note: ; Measurement imported from C:\Users\marcu\OneDrive\Desktop\audio_db\Simgot EA500 - n.Red Stock - Foam R.txt Format: Comma/Tab/Space delimited data 54613 values loaded, 0 Hz to 20,000 Hz 
* Measurement: Rimgot EA500 - n.Red Stock -
* Smoothing: None
* Frequency Step: 1/48 octave
* Start Frequency: 1.000 Hz
*
* Freq(Hz)	SPL(dB)	Phase(degrees)
1.000000	60.317	-61.3926
1.015000	60.147	-62.2573
1.030000	59.970	-63.1133
1.044000	59.799	-63.9038
1.060000	59.595	-64.7966
1.075000	59.397	-65.6225
1.090000	59.190	-66.4370
1.106000	58.962	-67.3138
1.120000	58.760	-68.2014
1.138000	58.499	-69.5149
1.150000	58.323	-70.4816
1.172000	57.995	-72.4019
1.180000	57.874	-73.1371
1.206000	57.472	-75.6098
1.220000	57.250	-76.9659
1.241000	56.907	-78.9847
1.250000	56.756	-79.8319
1.265000	56.499	-81.2025
1.280000	56.235	-82.5031
1.315000	55.586	-85.1452
1.320000	55.489	-85.4662
1.340000	55.091	-86.5772
1.360000	54.675	-87.3736
1.380000	54.238	-87.8048
1.400000	53.780	-87.8201
1.430000	53.049	-86.9523
1.450000	52.531	-85.7061
1.475000	51.835	-83.2834
1.500000	50.996	-79.6760
1.525000	50.022	-74.9831
1.550000	48.941	-69.3725
1.575000	47.786	-63.0117
1.600000	46.586	-56.0685
1.625000	45.374	-48.7106
1.650000	44.179	-41.1056
1.675000	43.032	-33.4212
1.700000	41.964	-25.8251
1.725000	41.006	-18.4851
1.750000	40.188	-11.5688
1.775000	39.542	-5.2438
1.800000	39.098	0.3222
1.825000	38.888	4.9614
1.850000	38.940	8.7194
1.875000	39.252	12.0355
1.900000	39.791	14.9554
1.925000	40.523	17.5046
1.950000	41.413	19.7087
1.975000	42.429	21.5934
2.000000	43.536	23.1842
2.030000	44.937	24.7413
2.060000	46.363	25.9565
2.090000	47.754	26.8739
2.120000	49.054	27.5377
2.140000	49.840	27.8614
2.180000	51.142	28.2821
2.200000	51.624	28.4035
2.240000	52.389	28.0994
2.270000	52.852	27.3385
2.300000	53.234	26.1939
2.330000	53.546	24.7316
2.360000	53.797	23.0174
2.400000	54.059	20.4536
2.430000	54.215	18.4076
2.470000	54.389	15.6403
2.500000	54.510	13.6208
2.540000	54.677	11.1278
2.580000	54.868	8.9596
2.620000	55.029	6.8199
2.650000	55.123	5.1874
2.690000	55.217	2.9873
2.720000	55.265	1.3288
2.760000	55.306	-0.8803
2.800000	55.322	-3.0714
2.850000	55.316	-5.7593
2.900000	55.288	-8.3601
2.950000	55.245	-10.8558
3.000000	55.168	-13.3441
3.040000	55.081	-15.3248
3.070000	55.003	-16.7906
3.110000	54.884	-18.7018
3.150000	54.751	-20.5442
3.200000	54.569	-22.7182
3.250000	54.374	-24.7102
3.300000	54.172	-26.4795
3.350000	53.944	-28.0888
3.400000	53.682	-29.5804
3.450000	53.399	-30.9230
3.500000	53.110	-32.0851
3.550000	52.828	-33.0356
3.600000	52.567	-33.7430
3.650000	52.339	-34.1761
3.700000	52.142	-34.2655
3.750000	51.943	-33.9565
3.820000	51.685	-33.0346
3.870000	51.530	-32.1612
3.950000	51.367	-30.6662
4.000000	51.337	-29.8254
4.060000	51.393	-28.9895
4.120000	51.552	-28.0278
4.180000	51.790	-27.0055
4.250000	52.137	-25.9150
4.310000	52.468	-25.2209
4.370000	52.804	-24.8903
4.440000	53.197	-25.0913
4.500000	53.575	-25.6770
4.550000	53.910	-26.3970
4.620000	54.389	-27.6754
4.680000	54.791	-28.9448
4.750000	55.225	-30.5279
4.820000	55.618	-32.2523
4.870000	55.888	-33.6588
4.940000	56.249	-35.7925
5.000000	56.541	-37.6997
5.080000	56.903	-40.2301
5.150000	57.189	-42.3316
5.220000	57.445	-44.4441
5.300000	57.705	-46.8745
5.380000	57.938	-49.2390
5.450000	58.123	-51.1857
5.520000	58.295	-52.9674
5.600000	58.463	-54.8704
5.700000	58.640	-57.0518
5.800000	58.800	-58.9677
5.900000	58.962	-60.5662
6.000000	59.109	-61.8232
6.080000	59.222	-62.6317
6.150000	59.327	-63.2330
6.220000	59.444	-63.7661
6.300000	59.593	-64.2544
6.400000	59.794	-64.6490
6.500000	60.012	-64.9429
6.600000	60.246	-65.2853
6.700000	60.504	-65.6551
6.800000	60.782	-66.0193
6.900000	61.063	-66.4473
7.000000	61.336	-67.0033
7.100000	61.612	-67.6784
7.200000	61.884	-68.4358
7.300000	62.141	-69.2429
7.400000	62.375	-70.0982
7.500000	62.594	-71.0280
7.620000	62.835	-72.1585
7.750000	63.067	-73.3055
7.880000	63.264	-74.4157
8.000000	63.427	-75.3660
8.120000	63.580	-76.1896
8.250000	63.726	-76.9529
8.380000	63.866	-77.6143
8.500000	64.001	-78.1415
8.620000	64.136	-78.5701
8.750000	64.285	-79.0038
8.850000	64.407	-79.3573
9.000000	64.598	-79.8721
9.120000	64.753	-80.3259
9.250000	64.920	-80.9079
9.380000	65.087	-81.5601
9.500000	65.234	-82.2190
9.620000	65.371	-82.9406
9.750000	65.512	-83.7902
9.880000	65.631	-84.6598
10.000000	65.714	-85.4710
10.150000	65.791	-86.5012
10.300000	65.850	-87.4827
10.440000	65.887	-88.3545
10.600000	65.918	-89.2940
10.750000	65.947	-90.1000
10.900000	65.973	-90.8475
11.060000	66.007	-91.6104
11.200000	66.041	-92.2406
11.380000	66.091	-93.0511
11.500000	66.130	-93.5994
11.720000	66.206	-94.6310
11.800000	66.235	-95.0237
12.060000	66.332	-96.3490
12.200000	66.381	-97.0895
12.410000	66.456	-98.2281
12.500000	66.492	-98.7156
12.650000	66.559	-99.5330
12.800000	66.628	-100.3435
13.150000	66.783	-102.1779
13.200000	66.804	-102.4317
13.400000	66.888	-103.4259
13.600000	66.972	-104.3834
13.800000	67.055	-105.3022
14.000000	67.139	-106.1847
14.300000	67.266	-107.4442
14.500000	67.350	-108.2480
14.750000	67.456	-109.2269
15.000000	67.561	-110.1845
15.250000	67.663	-111.1323
15.500000	67.756	-112.0631
15.750000	67.841	-112.9689
16.000000	67.918	-113.8300
16.250000	67.993	-114.6309
16.500000	68.065	-115.3697
16.750000	68.134	-116.0490
17.000000	68.204	-116.6978
17.250000	68.275	-117.3350
17.500000	68.345	-117.9849
17.750000	68.411	-118.6591
18.000000	68.471	-119.3517
18.250000	68.522	-120.0554
18.500000	68.567	-120.7493
18.750000	68.607	-121.4279
19.000000	68.644	-122.0860
19.250000	68.679	-122.7319
19.500000	68.715	-123.3754
19.750000	68.752	-124.0235
20.000000	68.788	-124.6804
20.299999	68.830	-125.4701
20.600000	68.873	-126.2495
20.900000	68.916	-127.0083
21.200001	68.963	-127.7484
21.400000	68.998	-128.2430
21.799999	69.074	-129.2617
22.000000	69.112	-129.7953
22.400000	69.182	-130.9102
22.700001	69.222	-131.7543
23.000000	69.251	-132.5530
23.299999	69.270	-133.2588
23.600000	69.286	-133.8487
24.000000	69.316	-134.4638
24.299999	69.353	-134.8503
24.700001	69.422	-135.3704
25.000000	69.481	-135.8283
25.400000	69.554	-136.5556
25.799999	69.603	-137.3512
26.200001	69.625	-138.0914
26.500000	69.633	-138.5522
26.900000	69.643	-139.0345
27.200001	69.660	-139.3440
27.600000	69.696	-139.7794
28.000000	69.738	-140.3182
28.500000	69.778	-141.1250
29.000000	69.792	-141.9351
29.500000	69.795	-142.6321
30.000000	69.806	-143.2317
30.400000	69.825	-143.7048
30.700001	69.843	-144.0790
31.100000	69.867	-144.6058
31.500000	69.888	-145.1474
32.000000	69.911	-145.8130
32.500000	69.930	-146.4435
33.000000	69.950	-147.0360
33.500000	69.972	-147.6048
34.000000	69.996	-148.1736
34.500000	70.017	-148.7521
35.000000	70.032	-149.3199
35.500000	70.041	-149.8428
36.000000	70.052	-150.3160
36.500000	70.068	-150.7727
37.000000	70.085	-151.2444
37.500000	70.100	-151.7239
38.200001	70.119	-152.3645
38.700001	70.134	-152.8146
39.500000	70.155	-153.5797
40.000000	70.158	-154.0357
40.599998	70.160	-154.4939
41.200001	70.173	-154.9041
41.799999	70.190	-155.3558
42.500000	70.203	-155.9191
43.099998	70.209	-156.3684
43.700001	70.217	-156.8097
44.400002	70.223	-157.3456
45.000000	70.224	-157.7828
45.500000	70.226	-158.1235
46.200001	70.232	-158.6123
46.799999	70.235	-159.0460
47.500000	70.235	-159.5124
48.200001	70.239	-159.9462
48.700001	70.244	-160.2654
49.400002	70.249	-160.7258
50.000000	70.250	-161.1123
50.799999	70.247	-161.5907
51.500000	70.245	-161.9601
52.200001	70.249	-162.3148
53.000000	70.256	-162.7545
53.799999	70.257	-163.2005
54.500000	70.256	-163.5640
55.200001	70.257	-163.9185
56.000000	70.257	-164.3372
57.000000	70.250	-164.8796
58.000000	70.232	-165.3405
59.000000	70.225	-165.6750
60.000000	70.245	-166.0708
60.799999	70.260	-166.5344
61.500000	70.256	-166.9662
62.200001	70.243	-167.3033
63.000000	70.237	-167.5966
64.000000	70.237	-168.0088
65.000000	70.224	-168.4000
66.000000	70.216	-168.7438
67.000000	70.204	-169.1174
68.000000	70.192	-169.4728
69.000000	70.180	-169.8785
70.000000	70.160	-170.2525
71.000000	70.153	-170.5767
72.000000	70.147	-170.9602
73.000000	70.139	-171.2855
74.000000	70.130	-171.6409
75.000000	70.102	-171.8752
76.199997	70.109	-172.0201
77.500000	70.109	-172.5423
78.800003	70.085	-172.9598
80.000000	70.067	-173.4253
81.199997	70.040	-173.8030
82.500000	70.032	-174.2329
83.800003	70.007	-174.6368
85.000000	69.997	-174.9091
86.199997	69.984	-175.2228
87.500000	69.962	-175.5214
88.500000	69.948	-175.7146
90.000000	69.932	-176.0582
91.199997	69.914	-176.3501
92.500000	69.892	-176.6405
93.800003	69.874	-176.8836
95.000000	69.860	-177.1252
96.199997	69.844	-177.3702
97.500000	69.823	-177.6325
98.800003	69.801	-177.8918
100.000000	69.782	-178.1268
101.500000	69.759	-178.4121
103.000000	69.738	-178.6752
104.400002	69.720	-178.9198
106.000000	69.698	-179.1938
107.500000	69.675	-179.4680
109.000000	69.647	-179.7117
110.599998	69.621	-179.9555
112.000000	69.599	179.8374
113.800003	69.572	179.5701
115.000000	69.555	179.3916
117.199997	69.522	179.0727
118.000000	69.510	178.9648
120.599998	69.468	178.6241
122.000000	69.442	178.4703
124.099998	69.410	178.2378
125.000000	69.398	178.1221
126.500000	69.378	177.9298
128.000000	69.361	177.7586
131.500000	69.319	177.3959
132.000000	69.313	177.3437
134.000000	69.286	177.1310
136.000000	69.264	176.9549
138.000000	69.243	176.7330
140.000000	69.214	176.5787
143.000000	69.176	176.3395
145.000000	69.146	176.1597
147.500000	69.113	175.9512
150.000000	69.086	175.7855
152.500000	69.056	175.6226
155.000000	69.023	175.4636
157.500000	68.990	175.3048
160.000000	68.956	175.1482
162.500000	68.915	175.0144
165.000000	68.871	174.9141
167.500000	68.826	174.7986
170.000000	68.780	174.6846
172.500000	68.736	174.5916
175.000000	68.694	174.5011
177.500000	68.652	174.4193
180.000000	68.610	174.3468
182.500000	68.567	174.2678
185.000000	68.525	174.1858
187.500000	68.484	174.1173
190.000000	68.444	174.0661
192.500000	68.405	174.0314
195.000000	68.365	174.0047
197.500000	68.324	173.9689
200.000000	68.285	173.9350
203.000000	68.245	173.9014
206.000000	68.203	173.8855
209.000000	68.164	173.8989
212.000000	68.125	173.8853
214.000000	68.100	173.8763
218.000000	68.052	173.8962
220.000000	68.029	173.8968
224.000000	67.978	173.9015
227.000000	67.943	173.9238
230.000000	67.908	173.9622
233.000000	67.871	174.0023
236.000000	67.836	174.0368
240.000000	67.792	174.0848
243.000000	67.758	174.1471
247.000000	67.712	174.2283
250.000000	67.678	174.2944
254.000000	67.636	174.3987
258.000000	67.598	174.4814
262.000000	67.562	174.5760
265.000000	67.533	174.6576
269.000000	67.495	174.7625
272.000000	67.467	174.8543
276.000000	67.431	174.9792
280.000000	67.400	175.1064
285.000000	67.362	175.2784
290.000000	67.318	175.4448
295.000000	67.275	175.6227
300.000000	67.237	175.7966
304.000000	67.209	175.9391
307.000000	67.187	176.0508
311.000000	67.161	176.2043
315.000000	67.133	176.3553
320.000000	67.091	176.5395
325.000000	67.055	176.7203
330.000000	67.024	176.9182
335.000000	66.995	177.1169
340.000000	66.961	177.3035
345.000000	66.927	177.5110
350.000000	66.892	177.7026
355.000000	66.859	177.9055
360.000000	66.832	178.1393
365.000000	66.803	178.3706
370.000000	66.771	178.6082
375.000000	66.739	178.8265
382.000000	66.697	179.1419
387.000000	66.670	179.3675
395.000000	66.630	179.7669
400.000000	66.606	-179.9858
406.000000	66.575	-179.6951
412.000000	66.547	-179.4066
418.000000	66.521	-179.1127
425.000000	66.491	-178.7537
431.000000	66.465	-178.4406
437.000000	66.440	-178.1243
444.000000	66.414	-177.7551
450.000000	66.391	-177.4429
455.000000	66.370	-177.1831
462.000000	66.342	-176.7982
468.000000	66.322	-176.4625
475.000000	66.301	-176.0748
482.000000	66.277	-175.7010
487.000000	66.263	-175.4263
494.000000	66.244	-175.0532
500.000000	66.228	-174.7290
508.000000	66.210	-174.2765
515.000000	66.194	-173.8637
522.000000	66.177	-173.4572
530.000000	66.163	-173.0164
538.000000	66.149	-172.5730
545.000000	66.136	-172.1692
552.000000	66.125	-171.7560
560.000000	66.115	-171.2898
570.000000	66.102	-170.7003
580.000000	66.090	-170.1278
590.000000	66.080	-169.5442
600.000000	66.071	-168.9301
608.000000	66.065	-168.4393
615.000000	66.062	-168.0123
622.000000	66.059	-167.6042
630.000000	66.058	-167.1372
640.000000	66.059	-166.5399
650.000000	66.060	-165.9203
660.000000	66.063	-165.2824
670.000000	66.067	-164.6530
680.000000	66.076	-164.0440
690.000000	66.085	-163.4326
700.000000	66.097	-162.8103
710.000000	66.110	-162.1685
720.000000	66.123	-161.5358
730.000000	66.141	-160.9127
740.000000	66.161	-160.2992
750.000000	66.184	-159.6842
762.000000	66.214	-158.9367
775.000000	66.249	-158.1419
788.000000	66.284	-157.3771
800.000000	66.316	-156.6884
812.000000	66.345	-156.0021
825.000000	66.370	-155.3007
838.000000	66.387	-154.5925
850.000000	66.397	-153.9026
862.000000	66.403	-153.1382
875.000000	66.413	-152.1990
885.000000	66.428	-151.4110
900.000000	66.470	-150.1650
912.000000	66.525	-149.1663
925.000000	66.600	-148.1296
938.000000	66.687	-147.1337
950.000000	66.773	-146.2517
962.000000	66.868	-145.4274
975.000000	66.973	-144.6046
988.000000	67.085	-143.8534
1000.000000	67.192	-143.2212
1015.000000	67.338	-142.4757
1030.000000	67.488	-141.7789
1044.000000	67.626	-141.1796
1060.000000	67.786	-140.5540
1075.000000	67.938	-140.0545
1090.000000	68.088	-139.6021
1106.000000	68.245	-139.1522
1120.000000	68.378	-138.7895
1138.000000	68.546	-138.3702
1150.000000	68.657	-138.1332
1172.000000	68.858	-137.7497
1180.000000	68.930	-137.6291
1206.000000	69.150	-137.2531
1220.000000	69.264	-137.0636
1241.000000	69.430	-136.8290
1250.000000	69.496	-136.7438
1265.000000	69.591	-136.6143
1280.000000	69.679	-136.4841
1315.000000	69.870	-136.1902
1320.000000	69.896	-136.1529
1340.000000	70.002	-136.0121
1360.000000	70.107	-135.8841
1380.000000	70.210	-135.7549
1400.000000	70.310	-135.6270
1430.000000	70.455	-135.4497
1450.000000	70.553	-135.3464
1475.000000	70.674	-135.2175
1500.000000	70.796	-135.1208
1525.000000	70.916	-135.0315
1550.000000	71.036	-134.9459
1575.000000	71.158	-134.8944
1600.000000	71.288	-134.8783
1625.000000	71.441	-134.8725
1650.000000	71.598	-134.8859
1675.000000	71.753	-134.9149
1700.000000	71.908	-134.9758
1725.000000	72.066	-135.0605
1750.000000	72.221	-135.1752
1775.000000	72.374	-135.2979
1800.000000	72.522	-135.4334
1825.000000	72.672	-135.6074
1850.000000	72.822	-135.8159
1875.000000	72.974	-136.0483
1900.000000	73.124	-136.3135
1925.000000	73.271	-136.6134
1950.000000	73.418	-136.9397
1975.000000	73.560	-137.2941
2000.000000	73.702	-137.6817
2030.000000	73.866	-138.2126
2060.000000	74.026	-138.8050
2090.000000	74.183	-139.4361
2120.000000	74.334	-140.1335
2140.000000	74.432	-140.6256
2180.000000	74.620	-141.6992
2200.000000	74.708	-142.2676
2240.000000	74.878	-143.4832
2270.000000	74.996	-144.4630
2300.000000	75.107	-145.4894
2330.000000	75.207	-146.5496
2360.000000	75.298	-147.6588
2400.000000	75.405	-149.1907
2430.000000	75.473	-150.3622
2470.000000	75.552	-151.9671
2500.000000	75.600	-153.1917
2540.000000	75.642	-154.8298
2580.000000	75.661	-156.4228
2620.000000	75.665	-158.0237
2650.000000	75.660	-159.2012
2690.000000	75.639	-160.7194
2720.000000	75.615	-161.8210
2760.000000	75.569	-163.2332
2800.000000	75.511	-164.5754
2850.000000	75.423	-166.1122
2900.000000	75.332	-167.5403
2950.000000	75.234	-168.8410
3000.000000	75.124	-169.9721
3040.000000	75.035	-170.8178
3070.000000	74.966	-171.3950
3110.000000	74.872	-172.0812
3150.000000	74.777	-172.6917
3200.000000	74.664	-173.3791
3250.000000	74.553	-173.9659
3300.000000	74.442	-174.4334
3350.000000	74.338	-174.8408
3400.000000	74.244	-175.1814
3450.000000	74.154	-175.4376
3500.000000	74.073	-175.6523
3550.000000	74.000	-175.8193
3600.000000	73.932	-175.9422
3650.000000	73.868	-176.0112
3700.000000	73.815	-176.0742
3750.000000	73.771	-176.1217
3820.000000	73.718	-176.1477
3870.000000	73.691	-176.1572
3950.000000	73.666	-176.1859
4000.000000	73.656	-176.2088
4060.000000	73.651	-176.2526
4120.000000	73.653	-176.3452
4180.000000	73.660	-176.4564
4250.000000	73.680	-176.6555
4310.000000	73.704	-176.9001
4370.000000	73.730	-177.1912
4440.000000	73.758	-177.5968
4500.000000	73.791	-178.0407
4550.000000	73.822	-178.4857
4620.000000	73.860	-179.1841
4680.000000	73.884	-179.8653
4750.000000	73.903	179.2438
4820.000000	73.913	178.2357
4870.000000	73.909	177.4726
4940.000000	73.890	176.3550
5000.000000	73.858	175.3267
5080.000000	73.773	173.9273
5150.000000	73.661	172.7083
5220.000000	73.525	171.5250
5300.000000	73.352	170.2056
5380.000000	73.150	169.0329
5450.000000	72.950	168.1957
5520.000000	72.750	167.4923
5600.000000	72.516	166.7369
5700.000000	72.184	165.9613
5800.000000	71.830	165.5067
5900.000000	71.470	165.3961
6000.000000	71.103	165.6101
6080.000000	70.810	165.9933
6150.000000	70.561	166.4713
6220.000000	70.320	167.0694
6300.000000	70.068	167.9025
6400.000000	69.832	169.1053
6500.000000	69.642	170.4680
6600.000000	69.471	172.0060
6700.000000	69.323	173.6461
6800.000000	69.200	175.3967
6900.000000	69.111	177.2097
7000.000000	69.052	179.0992
7100.000000	69.026	-178.9933
7200.000000	69.028	-177.1044
7300.000000	69.055	-175.2928
7400.000000	69.110	-173.5521
7500.000000	69.196	-171.8583
7620.000000	69.339	-169.9201
7750.000000	69.545	-167.9914
7880.000000	69.802	-166.3240
8000.000000	70.065	-165.1089
8120.000000	70.291	-164.3107
8250.000000	70.547	-163.9724
8380.000000	70.826	-164.3135
8500.000000	71.077	-165.2961
8620.000000	71.299	-166.9692
8750.000000	71.479	-169.5321
8850.000000	71.558	-171.9679
9000.000000	71.541	-176.1948
9120.000000	71.387	-179.7729
9250.000000	71.077	176.4940
9380.000000	70.632	173.2596
9500.000000	70.138	170.9067
9620.000000	69.594	169.2480
9750.000000	68.969	168.2624
9880.000000	68.345	168.0551
10000.000000	67.801	168.5023
10150.000000	67.217	169.7733
10300.000000	66.719	171.6989
10440.000000	66.331	173.9435
10600.000000	65.978	176.9335
10750.000000	65.740	-179.9764
10900.000000	65.602	-176.6898
11060.000000	65.570	-173.0782
11200.000000	65.639	-169.8896
11380.000000	65.864	-165.8778
11500.000000	66.106	-163.3458
11720.000000	66.770	-159.2747
11800.000000	67.090	-158.0782
12060.000000	68.446	-156.0638
12200.000000	69.375	-156.8843
12410.000000	70.906	-162.6118
12500.000000	71.491	-167.3996
12650.000000	72.086	-178.8220
12800.000000	71.912	167.2064
13150.000000	68.689	145.2855
13200.000000	68.092	144.2610
13400.000000	65.841	144.2698
13600.000000	64.117	148.4253
13800.000000	63.047	153.3815
14000.000000	62.377	156.7459
14300.000000	61.408	159.0698
14500.000000	60.633	160.6209
14750.000000	59.644	163.5910
15000.000000	58.795	167.5120
15250.000000	58.151	171.9207
15500.000000	57.730	176.2900
15750.000000	57.490	-179.9695
16000.000000	57.454	-176.9675
16250.000000	57.757	-174.9944
16500.000000	58.170	-174.2738
16750.000000	58.543	-174.9477
17000.000000	58.784	-176.8298
17250.000000	58.793	-179.5538
17500.000000	58.509	177.4059
17750.000000	57.810	174.7544
18000.000000	56.421	175.3285
18250.000000	55.152	-170.8141
18500.000000	57.017	-158.8743
18750.000000	58.234	-164.0410
19000.000000	58.342	-170.1610
19250.000000	58.094	-175.4929
19500.000000	57.549	178.5367
19750.000000	56.578	172.0171
