* Measurement data measured by REW V5.20.13
* Source: C:\Users\marcu\OneDrive\Desktop\audio_db\Symphonium Audio Helios SE Foam R.txt
* Format: Comma/Tab/Space delimited data
* Dated: May 29, 2023 8:27:35 AM
* REW Settings:
*  C-weighting compensation: Off
*  Target level: 75.0 dB
* Note: ; Measurement imported from C:\Users\marcu\OneDrive\Desktop\audio_db\Symphonium Audio Helios SE Foam R.txt Format: Comma/Tab/Space delimited data 54613 values loaded, 0 Hz to 20,000 Hz 
* Measurement: Rymphonium Audio Helios SE F
* Smoothing: None
* Frequency Step: 1/48 octave
* Start Frequency: 1.000 Hz
*
* Freq(Hz)	SPL(dB)	Phase(degrees)
1.000000	69.855	-59.8177
1.015000	69.680	-60.6966
1.030000	69.499	-61.5730
1.044000	69.323	-62.3884
1.060000	69.114	-63.3171
1.075000	68.910	-64.1845
1.090000	68.698	-65.0484
1.106000	68.464	-65.9964
1.120000	68.263	-67.0111
1.138000	68.011	-68.5794
1.150000	67.845	-69.7651
1.172000	67.543	-72.1699
1.180000	67.433	-73.1028
1.206000	67.071	-76.2733
1.220000	66.871	-78.0267
1.241000	66.562	-80.6477
1.250000	66.425	-81.7492
1.265000	66.190	-83.5311
1.280000	65.943	-85.2181
1.315000	65.319	-88.6092
1.320000	65.223	-89.0143
1.340000	64.822	-90.3897
1.360000	64.387	-91.3175
1.380000	63.917	-91.7230
1.400000	63.406	-91.5320
1.430000	62.556	-89.9641
1.450000	61.928	-87.9561
1.475000	61.054	-84.1844
1.500000	59.963	-78.5915
1.525000	58.667	-71.3263
1.550000	57.209	-62.6638
1.575000	55.634	-52.8793
1.600000	53.987	-42.2481
1.625000	52.310	-31.0452
1.650000	50.649	-19.5458
1.675000	49.047	-8.0252
1.700000	47.549	3.2415
1.725000	46.200	13.9790
1.750000	45.043	23.9122
1.775000	44.122	32.7659
1.800000	43.482	40.2649
1.825000	43.166	46.1341
1.850000	43.218	50.3554
1.875000	43.627	53.4657
1.900000	44.347	55.5991
1.925000	45.331	56.8672
1.950000	46.533	57.3817
1.975000	47.904	57.2542
2.000000	49.398	56.5963
2.030000	51.286	55.2641
2.060000	53.202	53.5218
2.090000	55.064	51.5625
2.120000	56.791	49.5790
2.140000	57.826	48.3386
2.180000	59.512	46.3114
2.200000	60.116	45.6352
2.240000	61.026	44.2577
2.270000	61.539	42.9837
2.300000	61.928	41.5384
2.330000	62.210	39.9534
2.360000	62.404	38.2603
2.400000	62.555	35.8893
2.430000	62.611	34.0668
2.470000	62.645	31.6382
2.500000	62.663	29.8585
2.540000	62.711	27.6017
2.580000	62.812	25.5214
2.620000	62.889	23.4584
2.650000	62.917	21.9024
2.690000	62.917	19.8301
2.720000	62.893	18.2869
2.760000	62.829	16.2582
2.800000	62.733	14.2783
2.850000	62.573	11.8983
2.900000	62.377	9.6555
2.950000	62.148	7.5567
3.000000	61.870	5.4168
3.040000	61.611	3.7006
3.070000	61.398	2.4459
3.110000	61.091	0.8587
3.150000	60.761	-0.5817
3.200000	60.322	-2.0950
3.250000	59.857	-3.1923
3.300000	59.373	-3.7707
3.350000	58.814	-3.8986
3.400000	58.166	-3.6701
3.450000	57.474	-3.0812
3.500000	56.782	-2.1281
3.550000	56.136	-0.8071
3.600000	55.578	0.8858
3.650000	55.154	2.9543
3.700000	54.879	5.6321
3.750000	54.703	9.2777
3.820000	54.600	15.3472
3.870000	54.617	19.8687
3.950000	54.772	26.3979
4.000000	54.934	29.4601
4.060000	55.199	31.6370
4.120000	55.612	32.7119
4.180000	56.136	32.9384
4.250000	56.812	32.3415
4.310000	57.384	31.2730
4.370000	57.890	29.8577
4.440000	58.360	27.7890
4.500000	58.718	25.3372
4.550000	58.992	22.9106
4.620000	59.343	19.1244
4.680000	59.616	15.7005
4.750000	59.907	11.7345
4.820000	60.164	7.7924
4.870000	60.323	4.8183
4.940000	60.516	0.5248
5.000000	60.660	-3.1880
5.080000	60.832	-8.0380
5.150000	60.970	-12.0697
5.220000	61.087	-16.0527
5.300000	61.196	-20.5382
5.380000	61.287	-24.8348
5.450000	61.358	-28.3431
5.520000	61.426	-31.5450
5.600000	61.485	-34.9278
5.700000	61.541	-38.7432
5.800000	61.604	-42.0302
5.900000	61.694	-44.7053
6.000000	61.792	-46.6998
6.080000	61.883	-47.9119
6.150000	61.985	-48.7789
6.220000	62.117	-49.5358
6.300000	62.308	-50.1919
6.400000	62.594	-50.6180
6.500000	62.922	-50.8854
6.600000	63.280	-51.2927
6.700000	63.684	-51.8236
6.800000	64.127	-52.3932
6.900000	64.574	-53.0877
7.000000	64.998	-53.9908
7.100000	65.418	-55.1096
7.200000	65.828	-56.3685
7.300000	66.209	-57.6877
7.400000	66.551	-59.0472
7.500000	66.864	-60.5022
7.620000	67.201	-62.2513
7.750000	67.520	-64.0046
7.880000	67.785	-65.6727
8.000000	67.997	-67.0867
8.120000	68.190	-68.3095
8.250000	68.369	-69.4354
8.380000	68.534	-70.3988
8.500000	68.690	-71.1552
8.620000	68.841	-71.7587
8.750000	69.007	-72.3459
8.850000	69.142	-72.8047
9.000000	69.353	-73.4412
9.120000	69.523	-73.9808
9.250000	69.706	-74.6594
9.380000	69.890	-75.4036
9.500000	70.051	-76.1514
9.620000	70.203	-76.9697
9.750000	70.359	-77.9296
9.880000	70.494	-78.9211
10.000000	70.592	-79.8551
10.150000	70.688	-81.0537
10.300000	70.767	-82.2344
10.440000	70.823	-83.3176
10.600000	70.877	-84.5389
10.750000	70.927	-85.6587
10.900000	70.975	-86.7632
11.060000	71.028	-87.9541
11.200000	71.076	-89.0024
11.380000	71.139	-90.3797
11.500000	71.180	-91.3241
11.720000	71.256	-93.0910
11.800000	71.283	-93.7436
12.060000	71.368	-95.8908
12.200000	71.411	-97.0391
12.410000	71.477	-98.7503
12.500000	71.513	-99.4713
12.650000	71.582	-100.6574
12.800000	71.657	-101.8282
13.150000	71.845	-104.5067
13.200000	71.873	-104.8859
13.400000	71.986	-106.3970
13.600000	72.099	-107.8912
13.800000	72.210	-109.3700
14.000000	72.317	-110.8063
14.300000	72.469	-112.8652
14.500000	72.565	-114.1490
14.750000	72.684	-115.6584
15.000000	72.802	-117.0685
15.250000	72.921	-118.4133
15.500000	73.038	-119.7219
15.750000	73.150	-121.0081
16.000000	73.254	-122.2803
16.250000	73.351	-123.5221
16.500000	73.439	-124.7245
16.750000	73.514	-125.8739
17.000000	73.582	-126.9763
17.250000	73.644	-128.0432
17.500000	73.703	-129.0916
17.750000	73.756	-130.1430
18.000000	73.804	-131.2020
18.250000	73.845	-132.2727
18.500000	73.880	-133.3474
18.750000	73.910	-134.4215
19.000000	73.937	-135.4914
19.250000	73.961	-136.5593
19.500000	73.985	-137.6299
19.750000	74.009	-138.7062
20.000000	74.032	-139.7902
20.299999	74.062	-141.0936
20.600000	74.092	-142.3910
20.900000	74.123	-143.6727
21.200001	74.156	-144.9340
21.400000	74.178	-145.7642
21.799999	74.225	-147.3987
22.000000	74.249	-148.2003
22.400000	74.295	-149.7602
22.700001	74.327	-150.8798
23.000000	74.359	-151.9500
23.299999	74.390	-152.9763
23.600000	74.420	-153.9683
24.000000	74.458	-155.2508
24.299999	74.481	-156.1857
24.700001	74.505	-157.3909
25.000000	74.518	-158.2611
25.400000	74.531	-159.3837
25.799999	74.539	-160.4848
26.200001	74.542	-161.5847
26.500000	74.540	-162.4113
26.900000	74.531	-163.5101
27.200001	74.522	-164.3277
27.600000	74.508	-165.4097
28.000000	74.494	-166.4897
28.500000	74.476	-167.8442
29.000000	74.459	-169.1960
29.500000	74.443	-170.5333
30.000000	74.428	-171.8462
30.400000	74.416	-172.8708
30.700001	74.408	-173.6186
31.100000	74.396	-174.5845
31.500000	74.386	-175.5177
32.000000	74.372	-176.6489
32.500000	74.354	-177.7447
33.000000	74.331	-178.7962
33.500000	74.305	-179.8015
34.000000	74.276	179.2239
34.500000	74.243	178.2635
35.000000	74.206	177.3140
35.500000	74.167	176.3781
36.000000	74.127	175.4525
36.500000	74.086	174.5327
37.000000	74.045	173.6188
37.500000	74.005	172.7120
38.200001	73.950	171.4545
38.700001	73.910	170.5733
39.500000	73.848	169.2154
40.000000	73.809	168.3950
40.599998	73.762	167.4345
41.200001	73.712	166.5140
41.799999	73.662	165.6363
42.500000	73.604	164.6350
43.099998	73.552	163.7791
43.700001	73.498	162.9372
44.400002	73.432	161.9828
45.000000	73.376	161.1816
45.500000	73.330	160.5223
46.200001	73.264	159.6178
46.799999	73.209	158.8649
47.500000	73.145	158.0063
48.200001	73.081	157.1614
48.700001	73.034	156.5732
49.400002	72.968	155.7783
50.000000	72.912	155.1099
50.799999	72.838	154.2245
51.500000	72.771	153.4708
52.200001	72.706	152.7384
53.000000	72.630	151.9181
53.799999	72.556	151.1232
54.500000	72.491	150.4448
55.200001	72.425	149.7861
56.000000	72.350	149.0612
57.000000	72.255	148.1609
58.000000	72.153	147.3060
59.000000	72.057	146.4787
60.000000	71.960	145.6074
60.799999	71.878	144.9491
61.500000	71.811	144.4069
62.200001	71.747	143.8603
63.000000	71.674	143.2377
64.000000	71.579	142.4940
65.000000	71.483	141.7650
66.000000	71.385	141.0822
67.000000	71.291	140.4224
68.000000	71.195	139.7377
69.000000	71.094	139.1013
70.000000	71.001	138.5109
71.000000	70.914	137.9077
72.000000	70.824	137.3099
73.000000	70.736	136.7395
74.000000	70.650	136.1480
75.000000	70.554	135.5761
76.199997	70.446	134.9765
77.500000	70.334	134.3221
78.800003	70.227	133.6730
80.000000	70.123	133.0861
81.199997	70.021	132.5312
82.500000	69.911	131.9582
83.800003	69.807	131.3873
85.000000	69.715	130.8785
86.199997	69.625	130.3317
87.500000	69.519	129.8252
88.500000	69.447	129.4485
90.000000	69.329	128.8661
91.199997	69.238	128.4396
92.500000	69.141	127.9486
93.800003	69.044	127.4845
95.000000	68.961	127.0807
96.199997	68.879	126.6579
97.500000	68.782	126.2433
98.800003	68.693	125.8744
100.000000	68.609	125.4941
101.500000	68.507	125.0755
103.000000	68.415	124.6255
104.400002	68.327	124.2073
106.000000	68.228	123.7694
107.500000	68.133	123.3848
109.000000	68.042	123.0367
110.599998	67.945	122.6439
112.000000	67.864	122.2968
113.800003	67.759	121.8475
115.000000	67.689	121.5757
117.199997	67.568	121.1049
118.000000	67.523	120.9399
120.599998	67.382	120.4463
122.000000	67.305	120.1713
124.099998	67.199	119.7769
125.000000	67.157	119.5937
126.500000	67.085	119.2885
128.000000	67.013	119.0433
131.500000	66.864	118.4813
132.000000	66.843	118.4019
134.000000	66.758	118.0965
136.000000	66.682	117.7903
138.000000	66.598	117.4615
140.000000	66.516	117.1786
143.000000	66.403	116.7851
145.000000	66.332	116.5463
147.500000	66.245	116.2376
150.000000	66.164	115.9277
152.500000	66.088	115.6340
155.000000	66.009	115.3481
157.500000	65.928	115.0798
160.000000	65.857	114.8647
162.500000	65.778	114.6010
165.000000	65.694	114.3210
167.500000	65.610	114.0559
170.000000	65.535	113.8105
172.500000	65.469	113.5869
175.000000	65.397	113.3906
177.500000	65.326	113.2140
180.000000	65.264	113.0130
182.500000	65.200	112.7644
185.000000	65.136	112.5761
187.500000	65.081	112.3563
190.000000	65.023	112.1756
192.500000	64.969	112.0490
195.000000	64.917	111.8864
197.500000	64.865	111.6735
200.000000	64.817	111.4744
203.000000	64.771	111.2812
206.000000	64.729	111.1225
209.000000	64.686	110.9544
212.000000	64.648	110.7361
214.000000	64.626	110.5867
218.000000	64.583	110.3400
220.000000	64.555	110.2186
224.000000	64.513	109.9691
227.000000	64.494	109.7862
230.000000	64.470	109.6215
233.000000	64.440	109.4669
236.000000	64.419	109.2715
240.000000	64.396	109.0207
243.000000	64.380	108.8463
247.000000	64.356	108.5684
250.000000	64.344	108.3792
254.000000	64.342	108.1816
258.000000	64.328	107.9590
262.000000	64.320	107.6927
265.000000	64.319	107.5009
269.000000	64.318	107.2543
272.000000	64.317	107.0497
276.000000	64.318	106.7999
280.000000	64.323	106.5505
285.000000	64.329	106.2839
290.000000	64.343	106.0080
295.000000	64.359	105.6398
300.000000	64.373	105.2635
304.000000	64.392	105.0190
307.000000	64.407	104.8336
311.000000	64.429	104.5872
315.000000	64.451	104.3227
320.000000	64.478	103.9593
325.000000	64.508	103.5942
330.000000	64.536	103.2678
335.000000	64.571	102.9341
340.000000	64.608	102.5570
345.000000	64.650	102.1801
350.000000	64.687	101.7764
355.000000	64.719	101.3728
360.000000	64.761	100.9614
365.000000	64.805	100.5479
370.000000	64.854	100.1768
375.000000	64.894	99.7581
382.000000	64.959	99.1945
387.000000	65.002	98.7837
395.000000	65.079	98.1250
400.000000	65.126	97.6769
406.000000	65.189	97.1115
412.000000	65.244	96.5269
418.000000	65.299	95.9806
425.000000	65.374	95.3194
431.000000	65.431	94.7546
437.000000	65.488	94.1912
444.000000	65.557	93.4578
450.000000	65.615	92.8749
455.000000	65.660	92.3908
462.000000	65.722	91.6572
468.000000	65.777	91.0493
475.000000	65.839	90.3143
482.000000	65.902	89.5738
487.000000	65.942	89.0523
494.000000	65.998	88.3215
500.000000	66.045	87.6947
508.000000	66.104	86.8432
515.000000	66.152	86.1056
522.000000	66.202	85.3779
530.000000	66.257	84.5627
538.000000	66.309	83.7421
545.000000	66.350	83.0103
552.000000	66.386	82.2896
560.000000	66.423	81.4877
570.000000	66.474	80.4681
580.000000	66.519	79.5003
590.000000	66.560	78.5534
600.000000	66.590	77.6286
608.000000	66.615	76.8965
615.000000	66.635	76.2803
622.000000	66.651	75.6654
630.000000	66.670	74.9908
640.000000	66.693	74.1703
650.000000	66.713	73.3952
660.000000	66.733	72.6545
670.000000	66.750	71.9540
680.000000	66.764	71.2550
690.000000	66.776	70.5863
700.000000	66.788	69.9640
710.000000	66.800	69.3574
720.000000	66.809	68.8119
730.000000	66.815	68.2982
740.000000	66.824	67.8148
750.000000	66.835	67.3505
762.000000	66.842	66.8274
775.000000	66.857	66.3188
788.000000	66.873	65.8415
800.000000	66.880	65.4868
812.000000	66.893	65.1531
825.000000	66.902	64.8220
838.000000	66.920	64.5503
850.000000	66.935	64.3484
862.000000	66.955	64.1471
875.000000	66.984	63.9296
885.000000	67.011	63.8082
900.000000	67.062	63.6489
912.000000	67.099	63.5072
925.000000	67.148	63.3753
938.000000	67.200	63.2438
950.000000	67.258	63.1322
962.000000	67.317	63.0330
975.000000	67.385	62.9191
988.000000	67.461	62.7725
1000.000000	67.538	62.6732
1015.000000	67.647	62.4621
1030.000000	67.760	62.2913
1044.000000	67.871	62.0862
1060.000000	68.001	61.8369
1075.000000	68.124	61.5544
1090.000000	68.250	61.2478
1106.000000	68.381	60.9067
1120.000000	68.496	60.5693
1138.000000	68.641	60.1226
1150.000000	68.739	59.8154
1172.000000	68.916	59.2109
1180.000000	68.980	58.9769
1206.000000	69.184	58.2021
1220.000000	69.290	57.7739
1241.000000	69.446	57.1208
1250.000000	69.508	56.8279
1265.000000	69.593	56.3346
1280.000000	69.673	55.8670
1315.000000	69.854	54.7051
1320.000000	69.880	54.5519
1340.000000	69.981	53.9269
1360.000000	70.081	53.2675
1380.000000	70.180	52.6075
1400.000000	70.275	51.9597
1430.000000	70.421	50.9803
1450.000000	70.515	50.3440
1475.000000	70.634	49.5122
1500.000000	70.754	48.6913
1525.000000	70.874	47.8490
1550.000000	70.996	47.0003
1575.000000	71.119	46.1205
1600.000000	71.242	45.2185
1625.000000	71.385	44.3030
1650.000000	71.536	43.3543
1675.000000	71.687	42.4016
1700.000000	71.830	41.4370
1725.000000	71.976	40.4436
1750.000000	72.116	39.4281
1775.000000	72.254	38.4034
1800.000000	72.390	37.3530
1825.000000	72.521	36.2518
1850.000000	72.648	35.1460
1875.000000	72.772	34.0198
1900.000000	72.890	32.8831
1925.000000	73.002	31.7138
1950.000000	73.110	30.5189
1975.000000	73.212	29.3193
2000.000000	73.307	28.1050
2030.000000	73.404	26.6177
2060.000000	73.491	25.1290
2090.000000	73.570	23.6163
2120.000000	73.639	22.0962
2140.000000	73.681	21.0869
2180.000000	73.751	19.0930
2200.000000	73.781	18.0886
2240.000000	73.822	16.1024
2270.000000	73.843	14.6337
2300.000000	73.855	13.1825
2330.000000	73.857	11.7574
2360.000000	73.851	10.3674
2400.000000	73.831	8.5653
2430.000000	73.807	7.2572
2470.000000	73.765	5.5792
2500.000000	73.727	4.3586
2540.000000	73.668	2.8137
2580.000000	73.599	1.3560
2620.000000	73.527	-0.0032
2650.000000	73.469	-0.9749
2690.000000	73.387	-2.1819
2720.000000	73.327	-3.0414
2760.000000	73.244	-4.1262
2800.000000	73.163	-5.0991
2850.000000	73.062	-6.2161
2900.000000	72.964	-7.2164
2950.000000	72.869	-8.0895
3000.000000	72.784	-8.8754
3040.000000	72.720	-9.4294
3070.000000	72.676	-9.8141
3110.000000	72.625	-10.2925
3150.000000	72.578	-10.7263
3200.000000	72.529	-11.2208
3250.000000	72.491	-11.7032
3300.000000	72.464	-12.1576
3350.000000	72.439	-12.6215
3400.000000	72.416	-13.0613
3450.000000	72.397	-13.4666
3500.000000	72.384	-13.8243
3550.000000	72.380	-14.1429
3600.000000	72.390	-14.3975
3650.000000	72.415	-14.6527
3700.000000	72.455	-14.9326
3750.000000	72.509	-15.2573
3820.000000	72.606	-15.8106
3870.000000	72.691	-16.3324
3950.000000	72.845	-17.3898
4000.000000	72.946	-18.2369
4060.000000	73.059	-19.4874
4120.000000	73.161	-20.9727
4180.000000	73.246	-22.7396
4250.000000	73.297	-25.1376
4310.000000	73.288	-27.4304
4370.000000	73.213	-29.8763
4440.000000	73.026	-32.7662
4500.000000	72.772	-35.1097
4550.000000	72.492	-36.8364
4620.000000	72.006	-38.6410
4680.000000	71.525	-39.3932
4750.000000	70.936	-39.1434
4820.000000	70.382	-37.5673
4870.000000	70.056	-35.6583
4940.000000	69.775	-32.2008
5000.000000	69.730	-28.9798
5080.000000	69.925	-25.2527
5150.000000	70.266	-23.1418
5220.000000	70.664	-22.3938
5300.000000	71.068	-23.0065
5380.000000	71.341	-24.6897
5450.000000	71.456	-26.5579
5520.000000	71.464	-28.4733
5600.000000	71.366	-30.4359
5700.000000	71.140	-32.3140
5800.000000	70.853	-33.4911
5900.000000	70.554	-33.9982
6000.000000	70.269	-33.9475
6080.000000	70.066	-33.6160
6150.000000	69.908	-33.1621
6220.000000	69.770	-32.5761
6300.000000	69.659	-31.8207
6400.000000	69.615	-30.8165
6500.000000	69.642	-29.7943
6600.000000	69.707	-28.8340
6700.000000	69.812	-28.0515
6800.000000	69.955	-27.4981
6900.000000	70.126	-27.2655
7000.000000	70.310	-27.3892
7100.000000	70.495	-27.9564
7200.000000	70.663	-29.0212
7300.000000	70.767	-30.4578
7400.000000	70.826	-31.9679
7500.000000	70.868	-33.8328
7620.000000	70.825	-36.6968
7750.000000	70.585	-40.0290
7880.000000	70.162	-43.0556
8000.000000	69.612	-45.2933
8120.000000	68.884	-46.8187
8250.000000	67.994	-47.5494
8380.000000	67.039	-47.2869
8500.000000	66.125	-46.0172
8620.000000	65.206	-43.6213
8750.000000	64.283	-39.4854
8850.000000	63.692	-35.3151
9000.000000	63.132	-28.4180
9120.000000	62.921	-23.3044
9250.000000	62.812	-18.5255
9380.000000	62.780	-14.4036
9500.000000	62.751	-11.0510
9620.000000	62.736	-7.8577
9750.000000	62.762	-4.6234
9880.000000	62.809	-1.6222
10000.000000	62.855	1.0958
10150.000000	63.015	4.5091
10300.000000	63.263	7.5405
10440.000000	63.507	9.9024
10600.000000	63.777	12.4540
10750.000000	64.062	14.7043
10900.000000	64.367	16.8001
11060.000000	64.733	18.8223
11200.000000	65.083	20.3025
11380.000000	65.574	21.7045
11500.000000	65.900	22.3285
11720.000000	66.537	23.2440
11800.000000	66.800	23.3490
12060.000000	67.725	22.3119
12200.000000	68.241	20.7199
12410.000000	68.986	16.5105
12500.000000	69.256	13.9128
12650.000000	69.574	8.4611
12800.000000	69.660	1.7375
13150.000000	68.621	-15.2657
13200.000000	68.330	-17.3829
13400.000000	66.910	-24.1631
13600.000000	65.258	-28.0245
13800.000000	63.551	-29.2964
14000.000000	61.891	-28.4690
14300.000000	59.577	-24.4429
14500.000000	58.169	-20.3508
14750.000000	56.565	-13.9349
15000.000000	55.142	-5.6422
15250.000000	54.194	4.5933
15500.000000	54.019	12.3467
15750.000000	53.713	15.0381
16000.000000	52.921	18.0972
16250.000000	52.208	23.3910
16500.000000	51.644	31.1051
16750.000000	51.369	41.4205
17000.000000	51.793	52.7023
17250.000000	52.759	61.0929
17500.000000	53.694	65.9943
17750.000000	54.386	69.8739
18000.000000	55.028	73.8675
18250.000000	55.707	77.7385
18500.000000	56.439	81.3111
18750.000000	57.252	83.8706
19000.000000	58.046	84.9161
19250.000000	58.750	84.2236
19500.000000	59.200	81.8063
19750.000000	59.292	78.5243
