* Measurement data measured by REW V5.20.13
* Source: C:\Users\marcu\OneDrive\Desktop\audio_db\TinHiFi T2 Plus Foam R.txt
* Format: Comma/Tab/Space delimited data
* Dated: Jun 2, 2023 6:32:36 PM
* REW Settings:
*  C-weighting compensation: Off
*  Target level: 75.0 dB
* Note: ; Measurement imported from C:\Users\marcu\OneDrive\Desktop\audio_db\TinHiFi T2 Plus Foam R.txt Format: Comma/Tab/Space delimited data 54613 values loaded, 0 Hz to 20,000 Hz 
* Measurement: TinHiFi T2 Plus Foam R
* Smoothing: None
* Frequency Step: 1/48 octave
* Start Frequency: 1.000 Hz
*
* Freq(Hz)	SPL(dB)	Phase(degrees)
1.000000	63.952	-61.0200
1.015000	63.774	-61.8696
1.030000	63.588	-62.7085
1.044000	63.408	-63.4809
1.060000	63.194	-64.3503
1.075000	62.984	-65.1516
1.090000	62.766	-65.9388
1.106000	62.523	-66.7854
1.120000	62.302	-67.6592
1.138000	62.009	-68.9730
1.150000	61.807	-69.9493
1.172000	61.425	-71.9024
1.180000	61.282	-72.6530
1.206000	60.805	-75.1839
1.220000	60.539	-76.5728
1.241000	60.131	-78.6380
1.250000	59.953	-79.5024
1.265000	59.651	-80.8966
1.280000	59.343	-82.2119
1.315000	58.606	-84.8414
1.320000	58.498	-85.1539
1.340000	58.063	-86.2107
1.360000	57.621	-86.9162
1.380000	57.171	-87.2142
1.400000	56.715	-87.0484
1.430000	56.021	-85.8067
1.450000	55.552	-84.2348
1.475000	54.950	-81.2981
1.500000	54.258	-76.9674
1.525000	53.476	-71.3551
1.550000	52.627	-64.6685
1.575000	51.733	-57.1148
1.600000	50.817	-48.9014
1.625000	49.901	-40.2355
1.650000	49.008	-31.3243
1.675000	48.159	-22.3753
1.700000	47.378	-13.5955
1.725000	46.687	-5.1923
1.750000	46.107	2.6270
1.775000	45.662	9.6551
1.800000	45.374	15.6849
1.825000	45.266	20.5089
1.850000	45.363	24.1366
1.875000	45.671	27.0175
1.900000	46.164	29.2381
1.925000	46.814	30.8652
1.950000	47.593	31.9660
1.975000	48.473	32.6073
2.000000	49.427	32.8561
2.030000	50.629	32.7308
2.060000	51.849	32.2525
2.090000	53.039	31.5368
2.120000	54.150	30.6995
2.140000	54.825	30.1309
2.180000	55.948	29.1229
2.200000	56.369	28.7494
2.240000	57.044	27.7611
2.270000	57.457	26.6758
2.300000	57.800	25.3425
2.330000	58.083	23.8033
2.360000	58.315	22.1003
2.400000	58.561	19.6477
2.430000	58.709	17.7266
2.470000	58.877	15.1363
2.500000	58.992	13.2266
2.540000	59.149	10.8044
2.580000	59.323	8.5851
2.620000	59.469	6.3720
2.650000	59.554	4.6874
2.690000	59.638	2.4199
2.720000	59.682	0.7112
2.760000	59.717	-1.5663
2.800000	59.730	-3.8297
2.850000	59.721	-6.6169
2.900000	59.693	-9.3313
2.950000	59.650	-11.9571
3.000000	59.576	-14.5789
3.040000	59.493	-16.6694
3.070000	59.419	-18.2212
3.110000	59.307	-20.2542
3.150000	59.181	-22.2292
3.200000	59.009	-24.5885
3.250000	58.826	-26.7928
3.300000	58.635	-28.8069
3.350000	58.421	-30.6916
3.400000	58.178	-32.4841
3.450000	57.916	-34.1520
3.500000	57.647	-35.6629
3.550000	57.382	-36.9842
3.600000	57.133	-38.0835
3.650000	56.909	-38.9284
3.700000	56.706	-39.4671
3.750000	56.498	-39.6743
3.820000	56.216	-39.5369
3.870000	56.039	-39.2296
3.950000	55.832	-38.5713
4.000000	55.768	-38.1658
4.060000	55.778	-37.7280
4.120000	55.875	-37.0695
4.180000	56.043	-36.2751
4.250000	56.304	-35.3711
4.310000	56.566	-34.7828
4.370000	56.846	-34.5205
4.440000	57.193	-34.7489
4.500000	57.543	-35.2776
4.550000	57.861	-35.9092
4.620000	58.323	-37.0318
4.680000	58.716	-38.1661
4.750000	59.144	-39.6261
4.820000	59.535	-41.2724
4.870000	59.809	-42.6283
4.940000	60.182	-44.7003
5.000000	60.486	-46.5655
5.080000	60.864	-49.0597
5.150000	61.163	-51.1517
5.220000	61.433	-53.2762
5.300000	61.710	-55.7428
5.380000	61.959	-58.1628
5.450000	62.156	-60.1700
5.520000	62.335	-62.0214
5.600000	62.510	-64.0261
5.700000	62.691	-66.3575
5.800000	62.850	-68.4275
5.900000	63.002	-70.1669
6.000000	63.130	-71.5733
6.080000	63.224	-72.4956
6.150000	63.308	-73.1792
6.220000	63.404	-73.7676
6.300000	63.525	-74.2851
6.400000	63.684	-74.6791
6.500000	63.858	-74.9313
6.600000	64.054	-75.1905
6.700000	64.278	-75.4205
6.800000	64.523	-75.5993
6.900000	64.777	-75.8270
7.000000	65.029	-76.1929
7.100000	65.292	-76.6670
7.200000	65.555	-77.2240
7.300000	65.807	-77.8536
7.400000	66.039	-78.5663
7.500000	66.259	-79.3762
7.620000	66.503	-80.3962
7.750000	66.736	-81.4708
7.880000	66.934	-82.5617
8.000000	67.095	-83.5249
8.120000	67.240	-84.3796
8.250000	67.373	-85.2097
8.380000	67.494	-85.9428
8.500000	67.605	-86.5201
8.620000	67.709	-86.9959
8.750000	67.822	-87.4558
8.850000	67.914	-87.7982
9.000000	68.057	-88.2557
9.120000	68.174	-88.6300
9.250000	68.302	-89.0885
9.380000	68.433	-89.5787
9.500000	68.550	-90.0712
9.620000	68.661	-90.6156
9.750000	68.777	-91.2556
9.880000	68.884	-91.9200
10.000000	68.974	-92.5512
10.150000	69.076	-93.3651
10.300000	69.169	-94.1632
10.440000	69.245	-94.8933
10.600000	69.328	-95.7086
10.750000	69.403	-96.4430
10.900000	69.476	-97.1567
11.060000	69.555	-97.9147
11.200000	69.625	-98.5714
11.380000	69.716	-99.4280
11.500000	69.778	-100.0126
11.720000	69.891	-101.1037
11.800000	69.931	-101.5075
12.060000	70.059	-102.8369
12.200000	70.126	-103.5486
12.410000	70.225	-104.6096
12.500000	70.268	-105.0561
12.650000	70.339	-105.7899
12.800000	70.411	-106.5141
13.150000	70.582	-108.1706
13.200000	70.607	-108.4058
13.400000	70.707	-109.3444
13.600000	70.807	-110.2751
13.800000	70.903	-111.1994
14.000000	70.996	-112.0964
14.300000	71.129	-113.3786
14.500000	71.213	-114.1715
14.750000	71.318	-115.0974
15.000000	71.424	-115.9563
15.250000	71.532	-116.7763
15.500000	71.639	-117.5799
15.750000	71.743	-118.3770
16.000000	71.840	-119.1715
16.250000	71.928	-119.9457
16.500000	72.007	-120.6897
16.750000	72.079	-121.3885
17.000000	72.146	-122.0452
17.250000	72.210	-122.6688
17.500000	72.272	-123.2732
17.750000	72.333	-123.8783
18.000000	72.391	-124.4896
18.250000	72.445	-125.1122
18.500000	72.494	-125.7415
18.750000	72.539	-126.3733
19.000000	72.580	-127.0039
19.250000	72.619	-127.6317
19.500000	72.656	-128.2581
19.750000	72.692	-128.8841
20.000000	72.728	-129.5095
20.299999	72.770	-130.2567
20.600000	72.811	-130.9983
20.900000	72.854	-131.7331
21.200001	72.897	-132.4630
21.400000	72.927	-132.9486
21.799999	72.987	-133.9143
22.000000	73.016	-134.3906
22.400000	73.074	-135.3165
22.700001	73.115	-135.9775
23.000000	73.157	-136.6068
23.299999	73.200	-137.2107
23.600000	73.244	-137.7964
24.000000	73.300	-138.5558
24.299999	73.340	-139.1074
24.700001	73.389	-139.8108
25.000000	73.423	-140.3122
25.400000	73.466	-140.9536
25.799999	73.507	-141.5820
26.200001	73.544	-142.2093
26.500000	73.568	-142.6778
26.900000	73.594	-143.2922
27.200001	73.612	-143.7414
27.600000	73.634	-144.3271
28.000000	73.656	-144.9069
28.500000	73.683	-145.6376
29.000000	73.711	-146.3802
29.500000	73.736	-147.1299
30.000000	73.761	-147.8731
30.400000	73.779	-148.4504
30.700001	73.793	-148.8687
31.100000	73.814	-149.4078
31.500000	73.835	-149.9323
32.000000	73.864	-150.5781
32.500000	73.891	-151.2113
33.000000	73.915	-151.8187
33.500000	73.937	-152.3946
34.000000	73.958	-152.9468
34.500000	73.977	-153.4862
35.000000	73.994	-154.0180
35.500000	74.006	-154.5431
36.000000	74.017	-155.0601
36.500000	74.026	-155.5658
37.000000	74.034	-156.0600
37.500000	74.042	-156.5495
38.200001	74.055	-157.2363
38.700001	74.063	-157.7221
39.500000	74.076	-158.4790
40.000000	74.086	-158.9455
40.599998	74.096	-159.5009
41.200001	74.105	-160.0417
41.799999	74.113	-160.5629
42.500000	74.118	-161.1422
43.099998	74.123	-161.6087
43.700001	74.129	-162.0595
44.400002	74.137	-162.5923
45.000000	74.142	-163.0544
45.500000	74.143	-163.4305
46.200001	74.145	-163.9391
46.799999	74.148	-164.3660
47.500000	74.150	-164.8589
48.200001	74.152	-165.3466
48.700001	74.152	-165.6911
49.400002	74.151	-166.1614
50.000000	74.149	-166.5501
50.799999	74.148	-167.0589
51.500000	74.147	-167.5043
52.200001	74.144	-167.9408
53.000000	74.140	-168.4190
53.799999	74.139	-168.8934
54.500000	74.136	-169.3130
55.200001	74.131	-169.7209
56.000000	74.125	-170.1619
57.000000	74.120	-170.7080
58.000000	74.109	-171.2637
59.000000	74.094	-171.7595
60.000000	74.087	-172.2292
60.799999	74.082	-172.6357
61.500000	74.075	-172.9850
62.200001	74.069	-173.3241
63.000000	74.062	-173.7152
64.000000	74.050	-174.1756
65.000000	74.039	-174.6106
66.000000	74.027	-175.0503
67.000000	74.014	-175.4673
68.000000	74.001	-175.8890
69.000000	73.986	-176.3068
70.000000	73.972	-176.7157
71.000000	73.957	-177.1226
72.000000	73.942	-177.5066
73.000000	73.928	-177.8924
74.000000	73.913	-178.2644
75.000000	73.897	-178.6209
76.199997	73.879	-179.0482
77.500000	73.858	-179.5035
78.800003	73.835	-179.9487
80.000000	73.815	179.6559
81.199997	73.795	179.2588
82.500000	73.773	178.8406
83.800003	73.750	178.4189
85.000000	73.728	178.0595
86.199997	73.709	177.6945
87.500000	73.684	177.3075
88.500000	73.664	177.0309
90.000000	73.635	176.6210
91.199997	73.611	176.3005
92.500000	73.585	175.9539
93.800003	73.560	175.6059
95.000000	73.536	175.2911
96.199997	73.512	174.9912
97.500000	73.487	174.6661
98.800003	73.461	174.3471
100.000000	73.435	174.0590
101.500000	73.405	173.7134
103.000000	73.373	173.3700
104.400002	73.344	173.0680
106.000000	73.312	172.7263
107.500000	73.281	172.4146
109.000000	73.248	172.1046
110.599998	73.214	171.7861
112.000000	73.183	171.5032
113.800003	73.145	171.1575
115.000000	73.119	170.9333
117.199997	73.074	170.5313
118.000000	73.055	170.3824
120.599998	72.997	169.9541
122.000000	72.969	169.7225
124.099998	72.922	169.3674
125.000000	72.901	169.2227
126.500000	72.869	168.9916
128.000000	72.836	168.7603
131.500000	72.760	168.2514
132.000000	72.749	168.1788
134.000000	72.705	167.8988
136.000000	72.660	167.6225
138.000000	72.616	167.3549
140.000000	72.572	167.1014
143.000000	72.508	166.7400
145.000000	72.463	166.5148
147.500000	72.408	166.2368
150.000000	72.352	165.9641
152.500000	72.299	165.7051
155.000000	72.242	165.4593
157.500000	72.185	165.2289
160.000000	72.132	164.9995
162.500000	72.077	164.7795
165.000000	72.024	164.5793
167.500000	71.970	164.3819
170.000000	71.916	164.1843
172.500000	71.864	164.0009
175.000000	71.809	163.8392
177.500000	71.755	163.6739
180.000000	71.703	163.5090
182.500000	71.651	163.3557
185.000000	71.599	163.2195
187.500000	71.545	163.0859
190.000000	71.493	162.9584
192.500000	71.443	162.8382
195.000000	71.392	162.7341
197.500000	71.341	162.6349
200.000000	71.290	162.5261
203.000000	71.229	162.4090
206.000000	71.169	162.3044
209.000000	71.109	162.2020
212.000000	71.048	162.1160
214.000000	71.008	162.0688
218.000000	70.931	161.9826
220.000000	70.894	161.9346
224.000000	70.818	161.8636
227.000000	70.762	161.8254
230.000000	70.705	161.7750
233.000000	70.648	161.7470
236.000000	70.593	161.7231
240.000000	70.521	161.6913
243.000000	70.465	161.6769
247.000000	70.393	161.6709
250.000000	70.338	161.6654
254.000000	70.270	161.6743
258.000000	70.201	161.6952
262.000000	70.132	161.7194
265.000000	70.083	161.7457
269.000000	70.015	161.8030
272.000000	69.965	161.8374
276.000000	69.900	161.8853
280.000000	69.836	161.9555
285.000000	69.756	162.0403
290.000000	69.678	162.1424
295.000000	69.604	162.2520
300.000000	69.527	162.3778
304.000000	69.468	162.4807
307.000000	69.424	162.5605
311.000000	69.366	162.6705
315.000000	69.309	162.7817
320.000000	69.238	162.9452
325.000000	69.169	163.1218
330.000000	69.102	163.2963
335.000000	69.037	163.4609
340.000000	68.973	163.6401
345.000000	68.909	163.8253
350.000000	68.848	164.0291
355.000000	68.787	164.2256
360.000000	68.725	164.4302
365.000000	68.663	164.6509
370.000000	68.608	164.8405
375.000000	68.552	165.0555
382.000000	68.471	165.3677
387.000000	68.417	165.5793
395.000000	68.329	165.9611
400.000000	68.275	166.1938
406.000000	68.213	166.4735
412.000000	68.152	166.7676
418.000000	68.092	167.0651
425.000000	68.023	167.4210
431.000000	67.963	167.7111
437.000000	67.907	168.0206
444.000000	67.845	168.4012
450.000000	67.789	168.7143
455.000000	67.743	168.9752
462.000000	67.681	169.3483
468.000000	67.630	169.6558
475.000000	67.572	170.0413
482.000000	67.512	170.4200
487.000000	67.471	170.6851
494.000000	67.411	171.0705
500.000000	67.360	171.3793
508.000000	67.289	171.7935
515.000000	67.226	172.1678
522.000000	67.152	172.6444
530.000000	67.071	173.0930
538.000000	67.001	173.7637
545.000000	66.909	174.1445
552.000000	66.845	175.0269
560.000000	66.797	175.5056
570.000000	66.663	176.6797
580.000000	66.688	178.1496
590.000000	66.781	178.6653
600.000000	66.818	178.3533
608.000000	66.713	177.7104
615.000000	66.502	177.8277
622.000000	66.344	178.8958
630.000000	66.303	-179.7657
640.000000	66.328	-178.5818
650.000000	66.345	-177.6508
660.000000	66.340	-176.7962
670.000000	66.328	-176.0033
680.000000	66.312	-175.2368
690.000000	66.295	-174.4623
700.000000	66.285	-173.6644
710.000000	66.267	-172.8742
720.000000	66.254	-172.0851
730.000000	66.242	-171.2864
740.000000	66.235	-170.4741
750.000000	66.231	-169.6567
762.000000	66.225	-168.6765
775.000000	66.230	-167.6076
788.000000	66.236	-166.5111
800.000000	66.246	-165.5184
812.000000	66.263	-164.5189
825.000000	66.289	-163.4258
838.000000	66.321	-162.3312
850.000000	66.354	-161.3399
862.000000	66.393	-160.3421
875.000000	66.440	-159.2713
885.000000	66.482	-158.4557
900.000000	66.556	-157.2556
912.000000	66.624	-156.3000
925.000000	66.697	-155.2930
938.000000	66.777	-154.3057
950.000000	66.859	-153.4161
962.000000	66.946	-152.5569
975.000000	67.046	-151.6454
988.000000	67.151	-150.7803
1000.000000	67.252	-150.0277
1015.000000	67.385	-149.1075
1030.000000	67.524	-148.2513
1044.000000	67.658	-147.5091
1060.000000	67.814	-146.7242
1075.000000	67.963	-146.0470
1090.000000	68.116	-145.4266
1106.000000	68.281	-144.8323
1120.000000	68.426	-144.3684
1138.000000	68.612	-143.8541
1150.000000	68.737	-143.5549
1172.000000	68.964	-143.1054
1180.000000	69.046	-142.9670
1206.000000	69.308	-142.6360
1220.000000	69.445	-142.5295
1241.000000	69.646	-142.4429
1250.000000	69.729	-142.4277
1265.000000	69.866	-142.4323
1280.000000	69.998	-142.4853
1315.000000	70.287	-142.7381
1320.000000	70.327	-142.7897
1340.000000	70.477	-143.0227
1360.000000	70.616	-143.2979
1380.000000	70.748	-143.5915
1400.000000	70.869	-143.8995
1430.000000	71.034	-144.3932
1450.000000	71.134	-144.7384
1475.000000	71.250	-145.1601
1500.000000	71.353	-145.5733
1525.000000	71.449	-145.9792
1550.000000	71.538	-146.3664
1575.000000	71.619	-146.7285
1600.000000	71.694	-147.0800
1625.000000	71.764	-147.4122
1650.000000	71.832	-147.7305
1675.000000	71.897	-148.0408
1700.000000	71.958	-148.3313
1725.000000	72.017	-148.6108
1750.000000	72.075	-148.8777
1775.000000	72.130	-149.1461
1800.000000	72.183	-149.4086
1825.000000	72.234	-149.6599
1850.000000	72.285	-149.9162
1875.000000	72.333	-150.1704
1900.000000	72.380	-150.4218
1925.000000	72.426	-150.6701
1950.000000	72.470	-150.9271
1975.000000	72.513	-151.1863
2000.000000	72.554	-151.4413
2030.000000	72.600	-151.7435
2060.000000	72.646	-152.0549
2090.000000	72.688	-152.3636
2120.000000	72.728	-152.6671
2140.000000	72.753	-152.8801
2180.000000	72.799	-153.2993
2200.000000	72.821	-153.5006
2240.000000	72.860	-153.9052
2270.000000	72.885	-154.2164
2300.000000	72.909	-154.5126
2330.000000	72.931	-154.8140
2360.000000	72.951	-155.1009
2400.000000	72.971	-155.4639
2430.000000	72.986	-155.7327
2470.000000	73.002	-156.0677
2500.000000	73.012	-156.3173
2540.000000	73.022	-156.6188
2580.000000	73.031	-156.8988
2620.000000	73.038	-157.1635
2650.000000	73.042	-157.3493
2690.000000	73.046	-157.5687
2720.000000	73.048	-157.7209
2760.000000	73.050	-157.9082
2800.000000	73.054	-158.0752
2850.000000	73.057	-158.2512
2900.000000	73.062	-158.4015
2950.000000	73.067	-158.5113
3000.000000	73.077	-158.6037
3040.000000	73.086	-158.6545
3070.000000	73.094	-158.6870
3110.000000	73.107	-158.7183
3150.000000	73.122	-158.7468
3200.000000	73.143	-158.7718
3250.000000	73.169	-158.7875
3300.000000	73.198	-158.7946
3350.000000	73.232	-158.7982
3400.000000	73.269	-158.8040
3450.000000	73.312	-158.8206
3500.000000	73.358	-158.8422
3550.000000	73.408	-158.8755
3600.000000	73.462	-158.9248
3650.000000	73.521	-158.9971
3700.000000	73.582	-159.0895
3750.000000	73.648	-159.2114
3820.000000	73.744	-159.4240
3870.000000	73.816	-159.6135
3950.000000	73.934	-159.9997
4000.000000	74.010	-160.2843
4060.000000	74.103	-160.6925
4120.000000	74.198	-161.1685
4180.000000	74.291	-161.7173
4250.000000	74.396	-162.4539
4310.000000	74.481	-163.1724
4370.000000	74.562	-163.9630
4440.000000	74.645	-164.9849
4500.000000	74.706	-165.9418
4550.000000	74.748	-166.7887
4620.000000	74.792	-168.0349
4680.000000	74.813	-169.1643
4750.000000	74.818	-170.5250
4820.000000	74.799	-171.9116
4870.000000	74.771	-172.8940
4940.000000	74.711	-174.2495
5000.000000	74.640	-175.3741
5080.000000	74.520	-176.7951
5150.000000	74.392	-177.9424
5220.000000	74.245	-178.9782
5300.000000	74.059	179.9896
5380.000000	73.854	179.1370
5450.000000	73.664	178.5421
5520.000000	73.468	178.1048
5600.000000	73.237	177.7812
5700.000000	72.954	177.6985
5800.000000	72.692	177.8131
5900.000000	72.428	178.0574
6000.000000	72.170	178.5405
6080.000000	71.977	179.0752
6150.000000	71.816	179.6353
6220.000000	71.668	-179.7327
6300.000000	71.510	-178.9355
6400.000000	71.334	-177.8366
6500.000000	71.182	-176.6703
6600.000000	71.055	-175.4492
6700.000000	70.953	-174.1905
6800.000000	70.876	-172.9314
6900.000000	70.825	-171.6552
7000.000000	70.800	-170.3903
7100.000000	70.810	-169.1767
7200.000000	70.857	-168.0769
7300.000000	70.932	-167.1522
7400.000000	71.033	-166.4328
7500.000000	71.156	-165.9475
7620.000000	71.333	-165.7585
7750.000000	71.538	-166.1835
7880.000000	71.724	-167.3444
8000.000000	71.841	-169.0206
8120.000000	71.882	-171.1290
8250.000000	71.828	-173.7310
8380.000000	71.653	-176.4609
8500.000000	71.377	-178.7904
8620.000000	71.012	179.2650
8750.000000	70.551	177.7573
8850.000000	70.170	177.0360
9000.000000	69.584	176.6816
9120.000000	69.126	176.9742
9250.000000	68.657	177.7915
9380.000000	68.230	179.0745
9500.000000	67.881	-179.3923
9620.000000	67.579	-177.5788
9750.000000	67.315	-175.3704
9880.000000	67.119	-172.9746
10000.000000	67.003	-170.6299
10150.000000	66.948	-167.6147
10300.000000	66.998	-164.5869
10440.000000	67.147	-161.8525
10600.000000	67.443	-158.9644
10750.000000	67.852	-156.6678
10900.000000	68.388	-155.0176
11060.000000	69.096	-154.3358
11200.000000	69.795	-155.0886
11380.000000	70.672	-158.4951
11500.000000	71.122	-162.2520
11720.000000	71.496	-170.1924
11800.000000	71.540	-172.8627
12060.000000	71.662	177.9384
12200.000000	71.558	171.5106
12410.000000	70.830	161.6615
12500.000000	70.329	158.2349
12650.000000	69.370	154.0989
12800.000000	68.382	151.7422
13150.000000	66.343	150.6255
13200.000000	66.097	150.7914
13400.000000	65.257	151.7496
13600.000000	64.618	152.5523
13800.000000	64.122	152.7284
14000.000000	63.716	151.9202
14300.000000	63.107	148.2555
14500.000000	62.546	144.1691
14750.000000	61.482	138.1815
15000.000000	59.983	132.9874
15250.000000	58.196	130.0131
15500.000000	56.332	129.3759
15750.000000	54.491	130.8828
16000.000000	52.799	134.1681
16250.000000	51.289	138.5086
16500.000000	49.960	143.6399
16750.000000	48.806	149.3418
17000.000000	47.833	155.1382
17250.000000	47.026	160.8455
17500.000000	46.363	166.2400
17750.000000	45.814	171.2166
18000.000000	45.360	175.2618
18250.000000	44.946	178.0555
18500.000000	44.440	179.4863
18750.000000	43.744	-179.9141
19000.000000	42.924	-178.7897
19250.000000	42.426	-178.8271
19500.000000	41.659	174.4269
19750.000000	39.639	167.5090
