* Measurement data measured by REW V5.20.13
* Source: C:\Users\marcu\OneDrive\Desktop\audio_db\TruthEar ZERO RED 10 Ohm Foam R.txt
* Format: Comma/Tab/Space delimited data
* Dated: Jun 20, 2023 6:32:01 PM
* REW Settings:
*  C-weighting compensation: Off
*  Target level: 75.0 dB
* Note: ; Measurement imported from C:\Users\marcu\OneDrive\Desktop\audio_db\TruthEar ZERO RED 10 Ohm Foam R.txt Format: Comma/Tab/Space delimited data 54613 values loaded, 0 Hz to 20,000 Hz 
* Measurement: RruthEar ZERO RED 10 Ohm F
* Smoothing: None
* Frequency Step: 1/48 octave
* Start Frequency: 1.000 Hz
*
* Freq(Hz)	SPL(dB)	Phase(degrees)
1.000000	75.237	-59.4224
1.015000	75.093	-60.2050
1.030000	74.946	-60.9735
1.044000	74.804	-61.6771
1.060000	74.638	-62.4642
1.075000	74.478	-63.1844
1.090000	74.313	-63.8864
1.106000	74.132	-64.6211
1.120000	73.970	-65.2894
1.138000	73.758	-66.1871
1.150000	73.613	-66.8047
1.172000	73.342	-67.9647
1.180000	73.241	-68.3923
1.206000	72.907	-69.7879
1.220000	72.723	-70.5349
1.241000	72.440	-71.6356
1.250000	72.317	-72.0964
1.265000	72.109	-72.8449
1.280000	71.898	-73.5634
1.315000	71.390	-75.0889
1.320000	71.316	-75.2861
1.340000	71.015	-76.0141
1.360000	70.708	-76.6333
1.380000	70.395	-77.1291
1.400000	70.076	-77.4865
1.430000	69.585	-77.7310
1.450000	69.250	-77.6778
1.475000	68.817	-77.3465
1.500000	68.331	-76.7485
1.525000	67.793	-75.9098
1.550000	67.214	-74.8498
1.575000	66.607	-73.5880
1.600000	65.985	-72.1440
1.625000	65.359	-70.5370
1.650000	64.742	-68.7868
1.675000	64.146	-66.9127
1.700000	63.584	-64.9342
1.725000	63.066	-62.8708
1.750000	62.606	-60.7420
1.775000	62.216	-58.5672
1.800000	61.908	-56.3660
1.825000	61.694	-54.1578
1.850000	61.582	-51.8469
1.875000	61.561	-49.2020
1.900000	61.621	-46.2760
1.925000	61.752	-43.1339
1.950000	61.944	-39.8407
1.975000	62.187	-36.4615
2.000000	62.471	-33.0613
2.030000	62.853	-29.0449
2.060000	63.261	-25.2043
2.090000	63.680	-21.6520
2.120000	64.092	-18.5002
2.140000	64.354	-16.6770
2.180000	64.826	-13.8479
2.200000	65.026	-12.9078
2.240000	65.420	-11.8736
2.270000	65.730	-11.7166
2.300000	66.049	-12.0153
2.330000	66.371	-12.7024
2.360000	66.694	-13.7107
2.400000	67.117	-15.4388
2.430000	67.425	-16.9354
2.470000	67.813	-19.0706
2.500000	68.084	-20.6896
2.540000	68.408	-22.7442
2.580000	68.684	-24.5862
2.620000	68.922	-26.5542
2.650000	69.078	-28.1556
2.690000	69.260	-30.4284
2.720000	69.380	-32.2160
2.760000	69.520	-34.6806
2.800000	69.641	-37.2038
2.850000	69.771	-40.3843
2.900000	69.886	-43.5266
2.950000	69.991	-46.5808
3.000000	70.071	-49.6852
3.040000	70.116	-52.2133
3.070000	70.140	-54.1235
3.110000	70.160	-56.6750
3.150000	70.169	-59.2148
3.200000	70.167	-62.3457
3.250000	70.153	-65.3947
3.300000	70.131	-68.3272
3.350000	70.095	-71.2056
3.400000	70.041	-74.0671
3.450000	69.973	-76.8775
3.500000	69.893	-79.6029
3.550000	69.805	-82.2089
3.600000	69.711	-84.6616
3.650000	69.615	-86.9267
3.700000	69.513	-89.0073
3.750000	69.395	-90.9664
3.820000	69.212	-93.4786
3.870000	69.079	-95.0852
3.950000	68.881	-97.2828
4.000000	68.777	-98.3967
4.060000	68.677	-99.4280
4.120000	68.580	-100.0739
4.180000	68.493	-100.4053
4.250000	68.417	-100.5089
4.310000	68.389	-100.4531
4.370000	68.405	-100.3544
4.440000	68.493	-100.1886
4.500000	68.623	-99.8165
4.550000	68.763	-99.4055
4.620000	68.995	-98.8005
4.680000	69.218	-98.3697
4.750000	69.492	-98.1189
4.820000	69.790	-98.1841
4.870000	70.030	-98.3403
4.940000	70.388	-98.6999
5.000000	70.703	-99.1307
5.080000	71.108	-99.8673
5.150000	71.428	-100.6582
5.220000	71.735	-101.6559
5.300000	72.074	-103.0019
5.380000	72.391	-104.4664
5.450000	72.644	-105.7621
5.520000	72.867	-107.0131
5.600000	73.089	-108.5048
5.700000	73.324	-110.4162
5.800000	73.518	-112.2358
5.900000	73.678	-113.8325
6.000000	73.790	-115.2884
6.080000	73.854	-116.3401
6.150000	73.901	-117.1500
6.220000	73.945	-117.8339
6.300000	73.989	-118.4430
6.400000	74.024	-118.9777
6.500000	74.057	-119.3162
6.600000	74.108	-119.5174
6.700000	74.177	-119.5190
6.800000	74.257	-119.3470
6.900000	74.352	-119.1383
7.000000	74.468	-119.0059
7.100000	74.609	-118.8663
7.200000	74.764	-118.7546
7.300000	74.921	-118.7476
7.400000	75.076	-118.8968
7.500000	75.237	-119.1654
7.620000	75.423	-119.6089
7.750000	75.597	-120.2099
7.880000	75.747	-120.9781
8.000000	75.863	-121.7427
8.120000	75.955	-122.4763
8.250000	76.023	-123.2883
8.380000	76.072	-124.0528
8.500000	76.106	-124.6553
8.620000	76.123	-125.1814
8.750000	76.136	-125.6764
8.850000	76.150	-126.0017
9.000000	76.169	-126.3837
9.120000	76.188	-126.6605
9.250000	76.220	-126.9704
9.380000	76.260	-127.2671
9.500000	76.300	-127.5762
9.620000	76.344	-127.9468
9.750000	76.398	-128.3973
9.880000	76.442	-128.8977
10.000000	76.466	-129.4123
10.150000	76.482	-130.1152
10.300000	76.486	-130.8382
10.440000	76.479	-131.5359
10.600000	76.465	-132.3392
10.750000	76.452	-133.0739
10.900000	76.439	-133.8017
11.060000	76.429	-134.5748
11.200000	76.425	-135.2455
11.380000	76.423	-136.1233
11.500000	76.425	-136.7242
11.720000	76.433	-137.8483
11.800000	76.436	-138.2660
12.060000	76.444	-139.6401
12.200000	76.445	-140.3638
12.410000	76.445	-141.4219
12.500000	76.452	-141.8497
12.650000	76.472	-142.5319
12.800000	76.498	-143.1767
13.150000	76.574	-144.5306
13.200000	76.586	-144.7154
13.400000	76.642	-145.4308
13.600000	76.702	-146.1394
13.800000	76.765	-146.8555
14.000000	76.824	-147.5697
14.300000	76.901	-148.6236
14.500000	76.942	-149.2804
14.750000	76.986	-150.0226
15.000000	77.024	-150.6691
15.250000	77.062	-151.2341
15.500000	77.102	-151.7636
15.750000	77.142	-152.2850
16.000000	77.182	-152.8367
16.250000	77.216	-153.4128
16.500000	77.243	-154.0010
16.750000	77.255	-154.5744
17.000000	77.258	-155.1067
17.250000	77.256	-155.5964
17.500000	77.253	-156.0451
17.750000	77.252	-156.4842
18.000000	77.255	-156.9332
18.250000	77.262	-157.4140
18.500000	77.270	-157.9395
18.750000	77.278	-158.5056
19.000000	77.284	-159.1082
19.250000	77.288	-159.7325
19.500000	77.291	-160.3683
19.750000	77.293	-161.0071
20.000000	77.296	-161.6397
20.299999	77.304	-162.3875
20.600000	77.317	-163.1233
20.900000	77.335	-163.8532
21.200001	77.355	-164.5879
21.400000	77.370	-165.0828
21.799999	77.394	-166.0694
22.000000	77.402	-166.5459
22.400000	77.410	-167.4202
22.700001	77.410	-167.9765
23.000000	77.413	-168.4416
23.299999	77.421	-168.8464
23.600000	77.436	-169.2324
24.000000	77.462	-169.7761
24.299999	77.476	-170.2226
24.700001	77.482	-170.8433
25.000000	77.476	-171.2938
25.400000	77.460	-171.8460
25.799999	77.443	-172.3568
26.200001	77.426	-172.8719
26.500000	77.415	-173.2822
26.900000	77.399	-173.8651
27.200001	77.385	-174.3216
27.600000	77.367	-174.9486
28.000000	77.352	-175.6029
28.500000	77.334	-176.4707
29.000000	77.308	-177.3551
29.500000	77.276	-178.1593
30.000000	77.250	-178.8049
30.400000	77.245	-179.2272
30.700001	77.253	-179.5292
31.100000	77.275	-179.9709
31.500000	77.299	179.5170
32.000000	77.315	178.8206
32.500000	77.310	178.1754
33.000000	77.296	177.6524
33.500000	77.287	177.2007
34.000000	77.281	176.7185
34.500000	77.266	176.1757
35.000000	77.236	175.6269
35.500000	77.197	175.1326
36.000000	77.158	174.6930
36.500000	77.127	174.2660
37.000000	77.101	173.8081
37.500000	77.078	173.3049
38.200001	77.039	172.5803
38.700001	77.008	172.1161
39.500000	76.982	171.4398
40.000000	76.976	170.9316
40.599998	76.954	170.2006
41.200001	76.902	169.5220
41.799999	76.839	169.0565
42.500000	76.791	168.6708
43.099998	76.770	168.2605
43.700001	76.744	167.7546
44.400002	76.704	167.1626
45.000000	76.670	166.6760
45.500000	76.646	166.2474
46.200001	76.604	165.6187
46.799999	76.562	165.1193
47.500000	76.515	164.6180
48.200001	76.474	164.1606
48.700001	76.449	163.8433
49.400002	76.420	163.3913
50.000000	76.393	162.9641
50.799999	76.346	162.3844
51.500000	76.300	161.9672
52.200001	76.264	161.5793
53.000000	76.224	161.0620
53.799999	76.173	160.5521
54.500000	76.126	160.1359
55.200001	76.076	159.7193
56.000000	76.014	159.3059
57.000000	75.947	158.7534
58.000000	75.853	158.1905
59.000000	75.787	157.8922
60.000000	75.765	157.2226
60.799999	75.705	156.5544
61.500000	75.646	156.1476
62.200001	75.599	155.7989
63.000000	75.549	155.3969
64.000000	75.489	154.9777
65.000000	75.432	154.5231
66.000000	75.362	154.0850
67.000000	75.291	153.6599
68.000000	75.215	153.2225
69.000000	75.142	152.7882
70.000000	75.068	152.3324
71.000000	74.997	151.9222
72.000000	74.927	151.4939
73.000000	74.849	151.1834
74.000000	74.786	150.9067
75.000000	74.718	150.5850
76.199997	74.632	150.1164
77.500000	74.488	149.6886
78.800003	74.400	149.4641
80.000000	74.304	148.9434
81.199997	74.217	148.6600
82.500000	74.139	148.0881
83.800003	74.026	147.7084
85.000000	73.957	147.4598
86.199997	73.880	147.1223
87.500000	73.797	146.8628
88.500000	73.736	146.5967
90.000000	73.617	146.2394
91.199997	73.527	146.0052
92.500000	73.423	145.6981
93.800003	73.316	145.4457
95.000000	73.227	145.2038
96.199997	73.135	144.9693
97.500000	73.042	144.7691
98.800003	72.950	144.5529
100.000000	72.863	144.4097
101.500000	72.756	144.2134
103.000000	72.635	144.0367
104.400002	72.528	143.9427
106.000000	72.411	143.7582
107.500000	72.297	143.5960
109.000000	72.189	143.4755
110.599998	72.076	143.3666
112.000000	71.977	143.3145
113.800003	71.849	143.2592
115.000000	71.757	143.2427
117.199997	71.601	143.2538
118.000000	71.545	143.2211
120.599998	71.359	143.2094
122.000000	71.271	143.2405
124.099998	71.135	143.2374
125.000000	71.075	143.2592
126.500000	70.974	143.3306
128.000000	70.879	143.4306
131.500000	70.661	143.7039
132.000000	70.635	143.7597
134.000000	70.527	143.9424
136.000000	70.402	144.1877
138.000000	70.278	144.5372
140.000000	70.161	144.8058
143.000000	70.008	145.1609
145.000000	69.905	145.4108
147.500000	69.779	145.7757
150.000000	69.644	146.2081
152.500000	69.522	146.7155
155.000000	69.409	147.1353
157.500000	69.300	147.6230
160.000000	69.200	148.1227
162.500000	69.087	148.6177
165.000000	68.971	149.1776
167.500000	68.871	149.7889
170.000000	68.779	150.3364
172.500000	68.690	150.9023
175.000000	68.611	151.4830
177.500000	68.528	152.0514
180.000000	68.445	152.6610
182.500000	68.370	153.2790
185.000000	68.304	153.9007
187.500000	68.237	154.4821
190.000000	68.171	155.0380
192.500000	68.116	155.6248
195.000000	68.074	156.2098
197.500000	68.032	156.7812
200.000000	67.988	157.2949
203.000000	67.945	157.9233
206.000000	67.916	158.5970
209.000000	67.888	159.2634
212.000000	67.853	159.8980
214.000000	67.833	160.2757
218.000000	67.800	161.0606
220.000000	67.796	161.4426
224.000000	67.779	162.1351
227.000000	67.764	162.6789
230.000000	67.762	163.1636
233.000000	67.755	163.6164
236.000000	67.754	164.1181
240.000000	67.749	164.7416
243.000000	67.744	165.1847
247.000000	67.758	165.7249
250.000000	67.763	166.1522
254.000000	67.774	166.6997
258.000000	67.780	167.1069
262.000000	67.785	167.5254
265.000000	67.790	167.8403
269.000000	67.804	168.2538
272.000000	67.808	168.5760
276.000000	67.822	168.9494
280.000000	67.838	169.2289
285.000000	67.853	169.6708
290.000000	67.870	170.0576
295.000000	67.882	170.3824
300.000000	67.893	170.7786
304.000000	67.906	171.0668
307.000000	67.913	171.2283
311.000000	67.919	171.4606
315.000000	67.924	171.6943
320.000000	67.940	171.9543
325.000000	67.944	172.2067
330.000000	67.945	172.4608
335.000000	67.950	172.6882
340.000000	67.961	172.8739
345.000000	67.971	173.1010
350.000000	67.979	173.3501
355.000000	67.968	173.5461
360.000000	67.966	173.7153
365.000000	67.967	173.9006
370.000000	67.968	174.0844
375.000000	67.969	174.2625
382.000000	67.964	174.5172
387.000000	67.962	174.7330
395.000000	67.957	175.0312
400.000000	67.953	175.1956
406.000000	67.949	175.3653
412.000000	67.940	175.5778
418.000000	67.937	175.8131
425.000000	67.928	176.0222
431.000000	67.926	176.2545
437.000000	67.912	176.4609
444.000000	67.902	176.6937
450.000000	67.897	176.9085
455.000000	67.890	177.0576
462.000000	67.877	177.2917
468.000000	67.866	177.5118
475.000000	67.858	177.7328
482.000000	67.852	177.9708
487.000000	67.840	178.1137
494.000000	67.825	178.3862
500.000000	67.811	178.6338
508.000000	67.796	178.9205
515.000000	67.786	179.1587
522.000000	67.777	179.3940
530.000000	67.763	179.6897
538.000000	67.754	-179.9612
545.000000	67.747	-179.6907
552.000000	67.744	-179.4188
560.000000	67.730	-179.1040
570.000000	67.719	-178.7017
580.000000	67.705	-178.3115
590.000000	67.691	-177.8924
600.000000	67.689	-177.5047
608.000000	67.684	-177.1202
615.000000	67.675	-176.8249
622.000000	67.671	-176.5536
630.000000	67.666	-176.1928
640.000000	67.652	-175.7375
650.000000	67.648	-175.3410
660.000000	67.648	-174.8889
670.000000	67.647	-174.4393
680.000000	67.642	-173.9684
690.000000	67.644	-173.5180
700.000000	67.644	-173.0141
710.000000	67.645	-172.5542
720.000000	67.653	-172.0931
730.000000	67.660	-171.6349
740.000000	67.675	-171.0919
750.000000	67.680	-170.6033
762.000000	67.688	-170.0260
775.000000	67.707	-169.3485
788.000000	67.731	-168.6863
800.000000	67.753	-168.0699
812.000000	67.778	-167.4444
825.000000	67.799	-166.7903
838.000000	67.827	-166.1440
850.000000	67.858	-165.5677
862.000000	67.889	-164.9347
875.000000	67.925	-164.2628
885.000000	67.963	-163.7579
900.000000	68.022	-163.0766
912.000000	68.078	-162.5037
925.000000	68.137	-161.9036
938.000000	68.194	-161.3316
950.000000	68.254	-160.8283
962.000000	68.317	-160.4065
975.000000	68.388	-159.9061
988.000000	68.464	-159.4566
1000.000000	68.537	-159.1021
1015.000000	68.646	-158.7009
1030.000000	68.755	-158.2733
1044.000000	68.855	-157.9494
1060.000000	68.971	-157.6357
1075.000000	69.080	-157.3776
1090.000000	69.189	-157.1703
1106.000000	69.300	-156.9955
1120.000000	69.393	-156.8757
1138.000000	69.507	-156.7643
1150.000000	69.580	-156.7293
1172.000000	69.703	-156.6748
1180.000000	69.749	-156.6545
1206.000000	69.881	-156.6414
1220.000000	69.943	-156.6375
1241.000000	70.032	-156.6502
1250.000000	70.061	-156.6381
1265.000000	70.097	-156.6321
1280.000000	70.120	-156.6234
1315.000000	70.165	-156.5090
1320.000000	70.169	-156.4650
1340.000000	70.191	-156.2706
1360.000000	70.217	-156.0820
1380.000000	70.241	-155.8727
1400.000000	70.274	-155.5945
1430.000000	70.336	-155.1478
1450.000000	70.388	-154.8685
1475.000000	70.467	-154.5578
1500.000000	70.550	-154.2429
1525.000000	70.641	-154.0513
1550.000000	70.736	-153.9310
1575.000000	70.827	-153.8903
1600.000000	70.918	-153.9341
1625.000000	71.028	-153.9880
1650.000000	71.140	-154.0568
1675.000000	71.244	-154.1667
1700.000000	71.341	-154.2692
1725.000000	71.438	-154.3798
1750.000000	71.526	-154.4827
1775.000000	71.617	-154.5757
1800.000000	71.703	-154.6140
1825.000000	71.787	-154.6692
1850.000000	71.876	-154.7345
1875.000000	71.965	-154.8012
1900.000000	72.049	-154.8397
1925.000000	72.135	-154.9055
1950.000000	72.227	-154.9716
1975.000000	72.317	-155.0391
2000.000000	72.407	-155.1090
2030.000000	72.509	-155.2345
2060.000000	72.612	-155.3763
2090.000000	72.714	-155.4951
2120.000000	72.818	-155.6739
2140.000000	72.890	-155.8185
2180.000000	73.031	-156.0720
2200.000000	73.101	-156.2202
2240.000000	73.242	-156.5482
2270.000000	73.345	-156.8444
2300.000000	73.447	-157.1554
2330.000000	73.552	-157.4791
2360.000000	73.655	-157.8623
2400.000000	73.790	-158.3802
2430.000000	73.888	-158.7998
2470.000000	74.018	-159.3802
2500.000000	74.116	-159.8494
2540.000000	74.237	-160.5433
2580.000000	74.355	-161.2825
2620.000000	74.466	-162.0321
2650.000000	74.549	-162.6241
2690.000000	74.655	-163.4643
2720.000000	74.731	-164.1159
2760.000000	74.824	-164.9978
2800.000000	74.914	-165.9189
2850.000000	75.013	-167.1196
2900.000000	75.099	-168.3603
2950.000000	75.173	-169.6194
3000.000000	75.237	-170.8894
3040.000000	75.280	-171.9235
3070.000000	75.307	-172.6943
3110.000000	75.335	-173.7386
3150.000000	75.356	-174.7546
3200.000000	75.375	-176.0312
3250.000000	75.383	-177.3002
3300.000000	75.380	-178.5429
3350.000000	75.368	-179.7805
3400.000000	75.351	179.0240
3450.000000	75.320	177.8340
3500.000000	75.287	176.6776
3550.000000	75.247	175.5560
3600.000000	75.199	174.4659
3650.000000	75.144	173.3983
3700.000000	75.085	172.3808
3750.000000	75.019	171.3836
3820.000000	74.921	170.0260
3870.000000	74.844	169.1182
3950.000000	74.718	167.7487
4000.000000	74.630	166.9101
4060.000000	74.520	165.9642
4120.000000	74.406	165.0843
4180.000000	74.287	164.2108
4250.000000	74.144	163.3016
4310.000000	74.020	162.5392
4370.000000	73.892	161.8329
4440.000000	73.739	161.0803
4500.000000	73.603	160.4587
4550.000000	73.490	159.9799
4620.000000	73.327	159.3502
4680.000000	73.186	158.8914
4750.000000	73.019	158.4017
4820.000000	72.845	157.9711
4870.000000	72.723	157.7031
4940.000000	72.551	157.3624
5000.000000	72.398	157.1558
5080.000000	72.177	156.9433
5150.000000	71.980	156.8124
5220.000000	71.780	156.7238
5300.000000	71.555	156.7121
5380.000000	71.330	156.7979
5450.000000	71.138	156.9545
5520.000000	70.949	157.1776
5600.000000	70.730	157.5345
5700.000000	70.471	158.0376
5800.000000	70.216	158.6846
5900.000000	69.976	159.4483
6000.000000	69.747	160.3222
6080.000000	69.573	161.0642
6150.000000	69.430	161.8123
6220.000000	69.294	162.5524
6300.000000	69.160	163.4388
6400.000000	69.068	164.6270
6500.000000	69.011	165.8441
6600.000000	68.965	167.1364
6700.000000	68.933	168.4201
6800.000000	68.932	169.7034
6900.000000	68.957	170.9584
7000.000000	68.998	172.2856
7100.000000	69.061	173.5300
7200.000000	69.161	174.6691
7300.000000	69.287	175.6752
7400.000000	69.438	176.5508
7500.000000	69.604	177.3062
7620.000000	69.830	177.9452
7750.000000	70.124	178.3243
7880.000000	70.453	178.1699
8000.000000	70.750	177.4235
8120.000000	70.956	176.0172
8250.000000	71.130	173.7543
8380.000000	71.239	170.6757
8500.000000	71.243	167.2613
8620.000000	71.129	163.3951
8750.000000	70.848	158.9911
8850.000000	70.519	155.6776
9000.000000	69.858	151.2159
9120.000000	69.213	148.3415
9250.000000	68.442	146.0295
9380.000000	67.633	144.5139
9500.000000	66.882	143.8566
9620.000000	66.145	143.7699
9750.000000	65.383	144.2690
9880.000000	64.658	145.3044
10000.000000	64.038	146.5879
10150.000000	63.360	148.6189
10300.000000	62.765	150.9543
10440.000000	62.274	153.4185
10600.000000	61.763	156.3887
10750.000000	61.336	159.3102
10900.000000	60.967	162.2755
11060.000000	60.598	165.5935
11200.000000	60.319	168.4704
11380.000000	59.952	172.3296
11500.000000	59.718	174.9478
11720.000000	59.287	-179.8839
11800.000000	59.145	-177.8492
12060.000000	58.800	-170.1221
12200.000000	58.704	-165.4798
12410.000000	58.713	-158.2302
12500.000000	58.787	-155.1368
12650.000000	58.973	-150.1121
12800.000000	59.242	-145.3998
13150.000000	60.254	-135.3740
13200.000000	60.448	-134.1019
13400.000000	61.366	-129.6730
13600.000000	62.495	-126.6469
13800.000000	63.886	-125.8960
14000.000000	65.451	-128.5098
14300.000000	67.569	-141.9421
14500.000000	68.103	-157.1686
14750.000000	67.225	-176.2313
15000.000000	65.250	171.7368
15250.000000	63.088	166.6266
15500.000000	61.152	165.9431
15750.000000	59.523	167.9431
16000.000000	58.271	171.1683
16250.000000	57.518	175.2768
16500.000000	57.081	179.6352
16750.000000	56.809	-176.0721
17000.000000	56.684	-171.9752
17250.000000	56.646	-168.3450
17500.000000	56.684	-165.0235
17750.000000	56.771	-162.2877
18000.000000	56.873	-160.1899
18250.000000	56.914	-158.8330
18500.000000	56.884	-158.1026
18750.000000	56.725	-158.0732
19000.000000	56.395	-158.0440
19250.000000	55.899	-158.2276
19500.000000	55.164	-158.3996
19750.000000	54.258	-158.1800
