* Measurement data measured by REW V5.20.13
* Source: C:\Users\marcu\OneDrive\Desktop\audio_db\Unique Melody MEST MKII Foam L.txt
* Format: Comma/Tab/Space delimited data
* Dated: May 29, 2023 8:27:36 AM
* REW Settings:
*  C-weighting compensation: Off
*  Target level: 75.0 dB
* Note: ; Measurement imported from C:\Users\marcu\OneDrive\Desktop\audio_db\Unique Melody MEST MKII Foam L.txt Format: Comma/Tab/Space delimited data 54613 values loaded, 0 Hz to 20,000 Hz 
* Measurement: Lnique Melody MEST MKII Foa
* Smoothing: None
* Frequency Step: 1/48 octave
* Start Frequency: 1.000 Hz
*
* Freq(Hz)	SPL(dB)	Phase(degrees)
1.000000	76.333	132.6806
1.015000	76.095	131.4680
1.030000	75.849	130.1311
1.044000	75.612	128.7618
1.060000	75.332	127.0417
1.075000	75.060	125.2676
1.090000	74.780	123.3262
1.106000	74.466	121.0587
1.120000	74.157	118.9030
1.138000	73.712	115.9099
1.150000	73.389	113.7850
1.172000	72.751	109.6427
1.180000	72.507	108.0629
1.206000	71.677	102.6863
1.220000	71.215	99.6530
1.241000	70.511	94.9473
1.250000	70.208	92.8801
1.265000	69.705	89.3766
1.280000	69.208	85.8106
1.315000	68.101	77.3111
1.320000	67.951	76.0828
1.340000	67.379	71.1511
1.360000	66.859	66.2107
1.380000	66.403	61.2890
1.400000	66.021	56.4131
1.430000	65.610	49.2455
1.450000	65.461	44.6042
1.475000	65.433	38.9588
1.500000	65.581	33.1281
1.525000	65.886	27.0745
1.550000	66.326	20.8600
1.575000	66.882	14.5463
1.600000	67.532	8.1955
1.625000	68.255	1.8693
1.650000	69.030	-4.3702
1.675000	69.837	-10.4613
1.700000	70.655	-16.3421
1.725000	71.462	-21.9506
1.750000	72.239	-27.2250
1.775000	72.963	-32.1034
1.800000	73.615	-36.5238
1.825000	74.173	-40.4245
1.850000	74.646	-43.7654
1.875000	75.093	-46.5957
1.900000	75.517	-48.9685
1.925000	75.922	-50.9361
1.950000	76.307	-52.5505
1.975000	76.674	-53.8639
2.000000	77.025	-54.9285
2.030000	77.426	-55.9509
2.060000	77.808	-56.7800
2.090000	78.172	-57.5061
2.120000	78.522	-58.2192
2.140000	78.748	-58.7318
2.180000	79.186	-59.9667
2.200000	79.399	-60.7406
2.240000	79.799	-62.2991
2.270000	80.073	-63.3755
2.300000	80.328	-64.3815
2.330000	80.565	-65.3249
2.360000	80.787	-66.2136
2.400000	81.064	-67.3272
2.430000	81.259	-68.1191
2.470000	81.507	-69.1323
2.500000	81.688	-69.8704
2.540000	81.926	-70.8406
2.580000	82.162	-71.8053
2.620000	82.384	-72.7218
2.650000	82.540	-73.3730
2.690000	82.736	-74.1976
2.720000	82.875	-74.7866
2.760000	83.051	-75.5375
2.800000	83.219	-76.2545
2.850000	83.421	-77.1120
2.900000	83.619	-77.9375
2.950000	83.814	-78.7382
3.000000	83.999	-79.4868
3.040000	84.139	-80.0480
3.070000	84.240	-80.4501
3.110000	84.371	-80.9650
3.150000	84.498	-81.4601
3.200000	84.652	-82.0584
3.250000	84.804	-82.6427
3.300000	84.954	-83.2223
3.350000	85.103	-83.7826
3.400000	85.246	-84.3142
3.450000	85.386	-84.8243
3.500000	85.522	-85.3200
3.550000	85.656	-85.8086
3.600000	85.787	-86.2973
3.650000	85.917	-86.7933
3.700000	86.045	-87.2965
3.750000	86.171	-87.7941
3.820000	86.343	-88.4859
3.870000	86.464	-88.9805
3.950000	86.651	-89.7808
4.000000	86.764	-90.2912
4.060000	86.896	-90.9178
4.120000	87.025	-91.5557
4.180000	87.150	-92.2027
4.250000	87.291	-92.9673
4.310000	87.407	-93.6294
4.370000	87.519	-94.2964
4.440000	87.643	-95.0817
4.500000	87.744	-95.7658
4.550000	87.825	-96.3412
4.620000	87.934	-97.1504
4.680000	88.023	-97.8432
4.750000	88.121	-98.6450
4.820000	88.214	-99.4409
4.870000	88.277	-100.0102
4.940000	88.360	-100.8050
5.000000	88.428	-101.4811
5.080000	88.514	-102.3700
5.150000	88.586	-103.1317
5.220000	88.654	-103.8812
5.300000	88.727	-104.7247
5.380000	88.796	-105.5536
5.450000	88.855	-106.2665
5.520000	88.913	-106.9671
5.600000	88.977	-107.7500
5.700000	89.053	-108.7069
5.800000	89.128	-109.6474
5.900000	89.204	-110.5785
6.000000	89.278	-111.4925
6.080000	89.338	-112.2152
6.150000	89.389	-112.8454
6.220000	89.441	-113.4771
6.300000	89.500	-114.2004
6.400000	89.574	-115.1020
6.500000	89.647	-116.0039
6.600000	89.719	-116.9089
6.700000	89.790	-117.8196
6.800000	89.860	-118.7331
6.900000	89.928	-119.6453
7.000000	89.994	-120.5530
7.100000	90.058	-121.4611
7.200000	90.121	-122.3649
7.300000	90.181	-123.2574
7.400000	90.239	-124.1359
7.500000	90.295	-125.0046
7.620000	90.360	-126.0281
7.750000	90.429	-127.1062
7.880000	90.496	-128.1541
8.000000	90.557	-129.0956
8.120000	90.618	-130.0115
8.250000	90.683	-130.9737
8.380000	90.748	-131.9103
8.500000	90.809	-132.7556
8.620000	90.869	-133.5800
8.750000	90.935	-134.4548
8.850000	90.984	-135.1178
9.000000	91.058	-136.0932
9.120000	91.115	-136.8584
9.250000	91.176	-137.6739
9.380000	91.236	-138.4747
9.500000	91.289	-139.1990
9.620000	91.341	-139.9084
9.750000	91.395	-140.6608
9.880000	91.440	-141.3934
10.000000	91.467	-142.0511
10.150000	91.486	-142.8492
10.300000	91.495	-143.6198
10.440000	91.498	-144.3132
10.600000	91.500	-145.0787
10.750000	91.500	-145.7716
10.900000	91.498	-146.4412
11.060000	91.494	-147.1369
11.200000	91.490	-147.7284
11.380000	91.483	-148.4737
11.500000	91.477	-148.9620
11.720000	91.465	-149.8435
11.800000	91.460	-150.1615
12.060000	91.439	-151.1848
12.200000	91.425	-151.7325
12.410000	91.403	-152.5491
12.500000	91.398	-152.8973
12.650000	91.397	-153.4755
12.800000	91.398	-154.0491
13.150000	91.393	-155.3655
13.200000	91.392	-155.5502
13.400000	91.384	-156.2805
13.600000	91.375	-156.9962
13.800000	91.364	-157.6964
14.000000	91.354	-158.3857
14.300000	91.339	-159.4034
14.500000	91.331	-160.0789
14.750000	91.321	-160.9270
15.000000	91.313	-161.7824
15.250000	91.305	-162.6460
15.500000	91.295	-163.5091
15.750000	91.285	-164.3651
16.000000	91.275	-165.2015
16.250000	91.270	-166.0097
16.500000	91.269	-166.7873
16.750000	91.269	-167.5332
17.000000	91.272	-168.2553
17.250000	91.277	-168.9595
17.500000	91.285	-169.6533
17.750000	91.292	-170.3418
18.000000	91.298	-171.0241
18.250000	91.303	-171.6987
18.500000	91.304	-172.3571
18.750000	91.301	-172.9932
19.000000	91.295	-173.6015
19.250000	91.288	-174.1774
19.500000	91.279	-174.7238
19.750000	91.269	-175.2438
20.000000	91.260	-175.7480
20.299999	91.252	-176.3464
20.600000	91.244	-176.9498
20.900000	91.233	-177.5651
21.200001	91.217	-178.1878
21.400000	91.202	-178.5976
21.799999	91.168	-179.3847
22.000000	91.151	-179.7559
22.400000	91.119	179.5427
22.700001	91.103	179.0226
23.000000	91.094	178.4650
23.299999	91.087	177.8409
23.600000	91.076	177.1517
24.000000	91.043	176.1826
24.299999	91.003	175.4936
24.700001	90.940	174.7216
25.000000	90.897	174.2750
25.400000	90.863	173.7961
25.799999	90.858	173.2968
26.200001	90.866	172.6489
26.500000	90.866	172.0709
26.900000	90.841	171.2802
27.200001	90.807	170.7694
27.600000	90.759	170.2741
28.000000	90.732	169.9354
28.500000	90.740	169.4564
29.000000	90.759	168.6534
29.500000	90.736	167.5999
30.000000	90.658	166.6312
30.400000	90.576	166.0800
30.700001	90.521	165.7914
31.100000	90.467	165.4742
31.500000	90.433	165.1267
32.000000	90.398	164.5703
32.500000	90.359	163.9265
33.000000	90.314	163.2855
33.500000	90.270	162.6689
34.000000	90.230	162.0460
34.500000	90.192	161.3992
35.000000	90.147	160.7477
35.500000	90.096	160.1329
36.000000	90.042	159.5922
36.500000	89.991	159.1355
37.000000	89.951	158.7219
37.500000	89.922	158.2775
38.200001	89.878	157.5300
38.700001	89.829	156.9708
39.500000	89.733	156.2663
40.000000	89.683	155.9388
40.599998	89.645	155.5157
41.200001	89.609	154.9629
41.799999	89.558	154.3553
42.500000	89.483	153.7428
43.099998	89.425	153.3029
43.700001	89.377	152.8430
44.400002	89.316	152.2587
45.000000	89.255	151.7927
45.500000	89.207	151.4522
46.200001	89.147	150.9885
46.799999	89.099	150.5536
47.500000	89.038	150.0283
48.200001	88.971	149.5395
48.700001	88.926	149.2181
49.400002	88.865	148.7776
50.000000	88.817	148.3872
50.799999	88.751	147.8668
51.500000	88.694	147.4293
52.200001	88.637	146.9884
53.000000	88.569	146.5029
53.799999	88.502	146.0762
54.500000	88.447	145.7085
55.200001	88.392	145.3475
56.000000	88.331	144.9440
57.000000	88.239	144.4026
58.000000	88.137	144.2159
59.000000	88.120	143.9505
60.000000	88.058	143.0674
60.799999	87.954	142.6237
61.500000	87.890	142.3931
62.200001	87.838	142.0312
63.000000	87.761	141.6075
64.000000	87.675	141.2263
65.000000	87.605	140.7754
66.000000	87.530	140.3521
67.000000	87.461	139.9742
68.000000	87.392	139.5701
69.000000	87.308	139.2003
70.000000	87.228	138.9233
71.000000	87.154	138.5811
72.000000	87.072	138.2407
73.000000	86.998	137.9114
74.000000	86.924	137.5557
75.000000	86.852	137.2352
76.199997	86.772	136.8767
77.500000	86.697	136.4691
78.800003	86.596	136.0436
80.000000	86.511	135.8601
81.199997	86.443	135.5728
82.500000	86.357	135.2398
83.800003	86.271	134.9154
85.000000	86.190	134.6429
86.199997	86.114	134.3697
87.500000	86.032	134.0685
88.500000	85.971	133.8215
90.000000	85.878	133.4819
91.199997	85.807	133.2258
92.500000	85.732	132.9813
93.800003	85.658	132.7462
95.000000	85.590	132.5457
96.199997	85.524	132.3411
97.500000	85.451	132.1143
98.800003	85.380	131.8936
100.000000	85.315	131.6871
101.500000	85.235	131.4418
103.000000	85.157	131.2189
104.400002	85.088	131.0032
106.000000	85.007	130.7736
107.500000	84.932	130.5659
109.000000	84.858	130.3730
110.599998	84.779	130.1641
112.000000	84.711	130.0124
113.800003	84.629	129.7750
115.000000	84.573	129.6310
117.199997	84.475	129.3819
118.000000	84.442	129.2759
120.599998	84.325	128.9711
122.000000	84.267	128.8298
124.099998	84.183	128.6223
125.000000	84.147	128.5338
126.500000	84.092	128.3969
128.000000	84.039	128.2506
131.500000	83.919	127.9475
132.000000	83.902	127.9074
134.000000	83.836	127.7657
136.000000	83.773	127.6136
138.000000	83.709	127.4728
140.000000	83.647	127.3034
143.000000	83.556	127.0638
145.000000	83.501	126.9089
147.500000	83.432	126.7390
150.000000	83.365	126.6032
152.500000	83.295	126.4571
155.000000	83.235	126.3046
157.500000	83.176	126.1122
160.000000	83.109	125.9785
162.500000	83.040	125.8644
165.000000	82.968	125.7451
167.500000	82.903	125.6311
170.000000	82.836	125.5143
172.500000	82.772	125.3923
175.000000	82.711	125.2572
177.500000	82.650	125.1454
180.000000	82.592	125.0410
182.500000	82.537	124.9357
185.000000	82.483	124.8038
187.500000	82.427	124.7043
190.000000	82.376	124.6082
192.500000	82.327	124.5050
195.000000	82.279	124.4105
197.500000	82.229	124.3299
200.000000	82.184	124.2410
203.000000	82.141	124.1042
206.000000	82.099	123.9844
209.000000	82.056	123.8713
212.000000	82.018	123.7538
214.000000	81.996	123.6753
218.000000	81.949	123.5093
220.000000	81.923	123.4432
224.000000	81.878	123.3140
227.000000	81.845	123.2131
230.000000	81.820	123.1220
233.000000	81.794	123.0108
236.000000	81.765	122.8716
240.000000	81.731	122.6968
243.000000	81.706	122.6103
247.000000	81.681	122.4789
250.000000	81.663	122.3597
254.000000	81.637	122.2255
258.000000	81.615	122.0797
262.000000	81.601	121.8994
265.000000	81.587	121.7845
269.000000	81.574	121.6376
272.000000	81.564	121.4934
276.000000	81.552	121.3481
280.000000	81.539	121.2024
285.000000	81.534	120.9569
290.000000	81.530	120.7687
295.000000	81.524	120.5587
300.000000	81.520	120.3535
304.000000	81.518	120.1657
307.000000	81.519	120.0389
311.000000	81.521	119.8857
315.000000	81.523	119.7088
320.000000	81.527	119.4901
325.000000	81.537	119.2670
330.000000	81.542	119.0395
335.000000	81.557	118.7951
340.000000	81.568	118.5233
345.000000	81.585	118.3117
350.000000	81.607	118.0494
355.000000	81.621	117.8126
360.000000	81.638	117.5523
365.000000	81.661	117.3143
370.000000	81.679	117.0372
375.000000	81.701	116.7464
382.000000	81.737	116.3852
387.000000	81.765	116.1034
395.000000	81.803	115.6357
400.000000	81.833	115.3535
406.000000	81.862	115.0256
412.000000	81.893	114.6810
418.000000	81.934	114.3174
425.000000	81.978	113.8774
431.000000	82.015	113.5118
437.000000	82.053	113.1798
444.000000	82.095	112.7444
450.000000	82.134	112.3784
455.000000	82.166	112.0710
462.000000	82.213	111.6078
468.000000	82.256	111.2174
475.000000	82.304	110.7976
482.000000	82.346	110.3478
487.000000	82.378	110.0051
494.000000	82.427	109.5455
500.000000	82.471	109.1790
508.000000	82.528	108.6530
515.000000	82.579	108.1898
522.000000	82.627	107.7517
530.000000	82.684	107.2184
538.000000	82.740	106.6922
545.000000	82.785	106.2482
552.000000	82.836	105.7984
560.000000	82.888	105.2485
570.000000	82.955	104.5981
580.000000	83.024	103.9168
590.000000	83.087	103.2613
600.000000	83.150	102.6330
608.000000	83.198	102.1099
615.000000	83.243	101.6595
622.000000	83.284	101.2044
630.000000	83.328	100.7203
640.000000	83.387	100.0870
650.000000	83.444	99.4949
660.000000	83.493	98.9005
670.000000	83.543	98.3106
680.000000	83.592	97.7188
690.000000	83.632	97.1698
700.000000	83.666	96.7009
710.000000	83.715	96.4052
720.000000	83.807	96.0270
730.000000	83.884	95.2949
740.000000	83.915	94.6160
750.000000	83.940	94.1053
762.000000	83.978	93.5794
775.000000	84.028	93.0142
788.000000	84.077	92.4986
800.000000	84.118	92.0357
812.000000	84.151	91.5645
825.000000	84.187	91.0982
838.000000	84.222	90.6500
850.000000	84.256	90.2642
862.000000	84.292	89.8977
875.000000	84.326	89.5162
885.000000	84.356	89.2344
900.000000	84.398	88.8197
912.000000	84.433	88.5213
925.000000	84.474	88.2044
938.000000	84.513	87.9002
950.000000	84.553	87.6004
962.000000	84.593	87.3023
975.000000	84.638	86.9960
988.000000	84.682	86.6983
1000.000000	84.727	86.4147
1015.000000	84.792	86.0351
1030.000000	84.858	85.6432
1044.000000	84.919	85.2970
1060.000000	84.987	84.8844
1075.000000	85.048	84.4894
1090.000000	85.106	84.0827
1106.000000	85.165	83.6602
1120.000000	85.214	83.2661
1138.000000	85.272	82.7763
1150.000000	85.307	82.4499
1172.000000	85.366	81.8502
1180.000000	85.386	81.6342
1206.000000	85.444	80.9530
1220.000000	85.471	80.5952
1241.000000	85.506	80.0987
1250.000000	85.513	79.8963
1265.000000	85.510	79.5750
1280.000000	85.499	79.2552
1315.000000	85.467	78.6008
1320.000000	85.463	78.5141
1340.000000	85.438	78.1868
1360.000000	85.415	77.8990
1380.000000	85.389	77.6465
1400.000000	85.359	77.4265
1430.000000	85.317	77.1616
1450.000000	85.292	77.0146
1475.000000	85.256	76.8824
1500.000000	85.225	76.7765
1525.000000	85.194	76.7281
1550.000000	85.167	76.7025
1575.000000	85.139	76.7149
1600.000000	85.123	76.7425
1625.000000	85.132	76.7940
1650.000000	85.153	76.8884
1675.000000	85.174	76.9810
1700.000000	85.197	77.0926
1725.000000	85.226	77.2039
1750.000000	85.256	77.3385
1775.000000	85.289	77.4727
1800.000000	85.326	77.6137
1825.000000	85.365	77.7651
1850.000000	85.407	77.9052
1875.000000	85.449	78.0427
1900.000000	85.495	78.1657
1925.000000	85.546	78.2896
1950.000000	85.597	78.4060
1975.000000	85.650	78.5098
2000.000000	85.707	78.6042
2030.000000	85.768	78.7039
2060.000000	85.831	78.7669
2090.000000	85.897	78.8121
2120.000000	85.966	78.8167
2140.000000	86.013	78.8000
2180.000000	86.109	78.7392
2200.000000	86.157	78.6768
2240.000000	86.257	78.5051
2270.000000	86.331	78.3390
2300.000000	86.407	78.1298
2330.000000	86.480	77.8870
2360.000000	86.553	77.5919
2400.000000	86.649	77.1479
2430.000000	86.720	76.7629
2470.000000	86.809	76.1677
2500.000000	86.874	75.6866
2540.000000	86.955	74.9589
2580.000000	87.031	74.1848
2620.000000	87.099	73.3214
2650.000000	87.146	72.6265
2690.000000	87.204	71.6351
2720.000000	87.244	70.8517
2760.000000	87.294	69.7625
2800.000000	87.334	68.6022
2850.000000	87.377	67.0410
2900.000000	87.407	65.3574
2950.000000	87.423	63.5489
3000.000000	87.425	61.6164
3040.000000	87.417	59.9885
3070.000000	87.405	58.7167
3110.000000	87.374	56.9374
3150.000000	87.326	55.0767
3200.000000	87.248	52.6477
3250.000000	87.140	50.1166
3300.000000	87.000	47.5232
3350.000000	86.821	44.8902
3400.000000	86.605	42.2829
3450.000000	86.353	39.7473
3500.000000	86.070	37.3886
3550.000000	85.764	35.2693
3600.000000	85.452	33.4410
3650.000000	85.142	31.8806
3700.000000	84.858	30.5421
3750.000000	84.610	29.4008
3820.000000	84.332	27.9877
3870.000000	84.189	26.9891
3950.000000	84.051	25.2734
4000.000000	84.014	24.0735
4060.000000	84.025	22.4039
4120.000000	84.100	20.4156
4180.000000	84.238	17.7406
4250.000000	84.373	12.3201
4310.000000	83.733	6.2206
4370.000000	82.693	10.0884
4440.000000	83.333	15.1401
4500.000000	84.011	14.5908
4550.000000	84.475	13.2841
4620.000000	85.082	11.2170
4680.000000	85.620	9.3156
4750.000000	86.293	6.8547
4820.000000	87.027	3.9398
4870.000000	87.578	1.4801
4940.000000	88.351	-2.6709
5000.000000	88.970	-6.9440
5080.000000	89.639	-13.4382
5150.000000	90.053	-19.3309
5220.000000	90.327	-24.8936
5300.000000	90.534	-30.5543
5380.000000	90.688	-35.5236
5450.000000	90.802	-39.4929
5520.000000	90.898	-43.2500
5600.000000	90.974	-47.3674
5700.000000	90.993	-52.2385
5800.000000	90.919	-56.6450
5900.000000	90.763	-60.4366
6000.000000	90.547	-63.5031
6080.000000	90.351	-65.4265
6150.000000	90.170	-66.7211
6220.000000	89.991	-67.6920
6300.000000	89.808	-68.4545
6400.000000	89.649	-68.9927
6500.000000	89.526	-69.1724
6600.000000	89.420	-69.1122
6700.000000	89.326	-68.8957
6800.000000	89.232	-68.5666
6900.000000	89.127	-68.1812
7000.000000	88.995	-67.6407
7100.000000	88.841	-66.7964
7200.000000	88.697	-65.6742
7300.000000	88.565	-64.4897
7400.000000	88.424	-63.2706
7500.000000	88.262	-61.9327
7620.000000	88.047	-60.0989
7750.000000	87.791	-57.7454
7880.000000	87.520	-54.9233
8000.000000	87.263	-51.8120
8120.000000	86.975	-48.3749
8250.000000	86.684	-44.5233
8380.000000	86.418	-40.4984
8500.000000	86.212	-36.5817
8620.000000	86.048	-32.5118
8750.000000	85.928	-28.0245
8850.000000	85.885	-24.5532
9000.000000	85.903	-19.4783
9120.000000	85.978	-15.7235
9250.000000	86.109	-12.0045
9380.000000	86.273	-8.7926
9500.000000	86.430	-6.3455
9620.000000	86.566	-4.3516
9750.000000	86.659	-2.5823
9880.000000	86.691	-0.9893
10000.000000	86.683	0.4689
10150.000000	86.669	2.4387
10300.000000	86.651	4.5918
10440.000000	86.634	6.6467
10600.000000	86.617	8.9172
10750.000000	86.592	10.7999
10900.000000	86.535	12.3947
11060.000000	86.403	13.8290
11200.000000	86.206	15.0260
11380.000000	85.834	16.7847
11500.000000	85.519	18.2681
11720.000000	84.834	21.9776
11800.000000	84.565	23.7728
12060.000000	83.798	31.2374
12200.000000	83.521	35.7899
12410.000000	83.278	42.5822
12500.000000	83.230	45.3466
12650.000000	83.200	49.5536
12800.000000	83.237	53.0743
13150.000000	83.439	57.1566
13200.000000	83.454	57.1378
13400.000000	83.347	55.4768
13600.000000	82.790	51.9496
13800.000000	81.658	48.5183
14000.000000	80.037	47.1815
14300.000000	77.188	50.8152
14500.000000	75.309	56.4048
14750.000000	73.140	65.9351
15000.000000	71.210	77.3049
15250.000000	69.560	89.7676
15500.000000	68.173	102.9408
15750.000000	67.000	116.1597
16000.000000	66.078	129.5011
16250.000000	65.556	142.7525
16500.000000	65.247	155.6207
16750.000000	65.041	167.9688
17000.000000	64.915	179.9139
17250.000000	64.819	-168.5799
17500.000000	64.683	-157.5067
17750.000000	64.468	-146.1796
18000.000000	64.248	-132.9821
18250.000000	64.732	-116.8763
18500.000000	66.144	-107.2597
18750.000000	66.995	-105.9582
19000.000000	66.982	-106.8093
19250.000000	66.160	-107.5906
19500.000000	64.590	-104.4466
19750.000000	63.159	-95.2223
