* Measurement data measured by REW V5.20.13
* Source: C:\Users\marcu\OneDrive\Desktop\audio_db\64 Audio U4s m15 Foam R.txt
* Format: Comma/Tab/Space delimited data
* Dated: May 29, 2023 8:27:35 AM
* REW Settings:
*  C-weighting compensation: Off
*  Target level: 75.0 dB
* Note: ; Measurement imported from C:\Users\marcu\OneDrive\Desktop\audio_db\64 Audio U4s m15 Foam R.txt Format: Comma/Tab/Space delimited data 54613 values loaded, 0 Hz to 20,000 Hz 
* Measurement: 64 Audio U4s m15 Foam R
* Smoothing: None
* Frequency Step: 1/48 octave
* Start Frequency: 1.000 Hz
*
* Freq(Hz)	SPL(dB)	Phase(degrees)
1.000000	84.023	-65.2555
1.015000	83.847	-66.3657
1.030000	83.666	-67.4950
1.044000	83.491	-68.5678
1.060000	83.286	-69.8174
1.075000	83.086	-71.0133
1.090000	82.880	-72.2344
1.106000	82.652	-73.6259
1.120000	82.445	-75.2399
1.138000	82.169	-77.8745
1.150000	81.980	-79.9309
1.172000	81.620	-84.2019
1.180000	81.486	-85.8841
1.206000	81.038	-91.6708
1.220000	80.789	-94.9048
1.241000	80.409	-99.7697
1.250000	80.243	-101.8224
1.265000	79.964	-105.1498
1.280000	79.681	-108.3046
1.315000	79.008	-114.6373
1.320000	78.911	-115.3899
1.340000	78.520	-117.9254
1.360000	78.126	-119.5883
1.380000	77.730	-120.2277
1.400000	77.334	-119.6927
1.430000	76.740	-116.3582
1.450000	76.346	-112.2270
1.475000	75.853	-104.5369
1.500000	75.311	-93.0475
1.525000	74.722	-78.0652
1.550000	74.097	-60.1931
1.575000	73.449	-40.0342
1.600000	72.791	-18.1919
1.625000	72.136	4.7309
1.650000	71.495	28.1310
1.675000	70.883	51.4053
1.700000	70.311	73.9508
1.725000	69.793	95.1641
1.750000	69.340	114.4423
1.775000	68.966	131.1821
1.800000	68.683	144.7806
1.825000	68.503	154.6345
1.850000	68.443	160.5504
1.875000	68.507	163.3966
1.900000	68.679	163.5663
1.925000	68.942	161.4205
1.950000	69.282	157.3199
1.975000	69.681	151.6254
2.000000	70.124	144.6979
2.030000	70.690	135.2652
2.060000	71.269	125.2001
2.090000	71.831	115.1260
2.120000	72.349	105.6665
2.140000	72.656	100.0094
2.180000	73.142	91.0851
2.200000	73.304	88.1772
2.240000	73.553	83.6696
2.270000	73.704	80.7347
2.300000	73.826	78.1516
2.330000	73.917	75.8930
2.360000	73.978	73.9315
2.400000	74.012	71.7312
2.430000	74.003	70.3568
2.470000	73.943	68.8402
2.500000	73.862	67.9042
2.540000	73.708	66.8729
2.580000	73.489	66.0252
2.620000	73.131	65.3061
2.650000	72.780	64.8933
2.690000	72.237	64.5838
2.720000	71.794	64.5816
2.760000	71.191	64.9576
2.800000	70.611	65.8493
2.850000	69.980	67.8263
2.900000	69.530	70.9257
2.950000	69.324	75.4376
3.000000	69.281	82.2412
3.040000	69.336	89.0159
3.070000	69.426	94.6066
3.110000	69.606	102.4136
3.150000	69.848	110.2506
3.200000	70.231	119.4682
3.250000	70.691	127.3005
3.300000	71.218	132.9565
3.350000	71.887	136.5937
3.400000	72.717	138.8843
3.450000	73.652	140.1061
3.500000	74.633	140.5371
3.550000	75.604	140.4552
3.600000	76.505	140.1383
3.650000	77.281	139.8645
3.700000	77.911	139.6248
3.750000	78.465	138.9299
3.820000	79.135	137.3636
3.870000	79.552	135.9765
3.950000	80.138	133.6091
4.000000	80.468	132.2153
4.060000	80.836	130.7461
4.120000	81.144	129.2332
4.180000	81.399	127.6766
4.250000	81.641	125.8782
4.310000	81.814	124.4144
4.370000	81.965	123.0799
4.440000	82.116	121.7126
4.500000	82.204	120.6240
4.550000	82.254	119.7842
4.620000	82.298	118.7359
4.680000	82.324	117.9785
4.750000	82.354	117.2890
4.820000	82.380	116.8412
4.870000	82.384	116.6650
4.940000	82.379	116.5829
5.000000	82.377	116.6328
5.080000	82.392	116.8178
5.150000	82.438	117.0534
5.220000	82.504	117.4745
5.300000	82.599	118.1289
5.380000	82.716	118.8254
5.450000	82.838	119.3522
5.520000	82.980	119.7152
5.600000	83.178	120.0529
5.700000	83.459	120.3557
5.800000	83.752	120.4325
5.900000	84.031	120.1859
6.000000	84.316	119.6048
6.080000	84.542	118.9584
6.150000	84.730	118.3016
6.220000	84.902	117.5936
6.300000	85.078	116.6922
6.400000	85.277	115.3881
6.500000	85.452	113.9988
6.600000	85.602	112.6443
6.700000	85.724	111.3005
6.800000	85.819	109.9458
6.900000	85.900	108.6514
7.000000	85.974	107.4796
7.100000	86.031	106.4073
7.200000	86.081	105.4200
7.300000	86.134	104.5146
7.400000	86.197	103.7051
7.500000	86.264	103.0014
7.620000	86.353	102.2200
7.750000	86.474	101.3666
7.880000	86.618	100.5537
8.000000	86.764	99.7778
8.120000	86.918	98.9078
8.250000	87.099	97.8843
8.380000	87.283	96.7889
8.500000	87.445	95.7075
8.620000	87.605	94.5493
8.750000	87.772	93.2688
8.850000	87.890	92.2953
9.000000	88.056	90.8166
9.120000	88.180	89.6676
9.250000	88.308	88.4972
9.380000	88.426	87.3832
9.500000	88.534	86.4132
9.620000	88.646	85.5106
9.750000	88.767	84.6022
9.880000	88.882	83.7360
10.000000	88.980	82.9696
10.150000	89.095	82.0576
10.300000	89.206	81.1511
10.440000	89.308	80.3094
10.600000	89.420	79.3515
10.750000	89.522	78.4463
10.900000	89.621	77.5420
11.060000	89.718	76.5978
11.200000	89.796	75.7854
11.380000	89.890	74.7776
11.500000	89.947	74.1344
11.720000	90.046	73.0028
11.800000	90.080	72.6065
12.060000	90.183	71.3661
12.200000	90.235	70.7113
12.410000	90.308	69.7461
12.500000	90.344	69.3335
12.650000	90.409	68.6471
12.800000	90.474	67.9684
13.150000	90.604	66.4258
13.200000	90.620	66.2133
13.400000	90.683	65.3853
13.600000	90.742	64.5870
13.800000	90.798	63.8209
14.000000	90.856	63.0581
14.300000	90.944	61.9018
14.500000	91.003	61.0928
14.750000	91.072	60.0366
15.000000	91.135	58.9341
15.250000	91.187	57.8161
15.500000	91.231	56.7156
15.750000	91.269	55.6493
16.000000	91.312	54.6318
16.250000	91.362	53.6447
16.500000	91.422	52.6741
16.750000	91.486	51.6965
17.000000	91.552	50.7000
17.250000	91.619	49.6876
17.500000	91.681	48.6661
17.750000	91.740	47.6582
18.000000	91.794	46.6762
18.250000	91.842	45.7334
18.500000	91.889	44.8393
18.750000	91.934	43.9944
19.000000	91.978	43.1989
19.250000	92.023	42.4467
19.500000	92.069	41.7281
19.750000	92.116	41.0343
20.000000	92.165	40.3484
20.299999	92.223	39.5231
20.600000	92.277	38.6904
20.900000	92.324	37.8574
21.200001	92.361	37.0443
21.400000	92.381	36.5256
21.799999	92.418	35.5451
22.000000	92.437	35.0755
22.400000	92.477	34.1402
22.700001	92.509	33.4091
23.000000	92.538	32.6386
23.299999	92.560	31.8477
23.600000	92.575	31.0647
24.000000	92.590	30.0707
24.299999	92.604	29.3655
24.700001	92.630	28.4413
25.000000	92.656	27.7233
25.400000	92.691	26.7110
25.799999	92.716	25.6708
26.200001	92.730	24.6766
26.500000	92.739	23.9943
26.900000	92.753	23.1699
27.200001	92.771	22.5890
27.600000	92.802	21.8183
28.000000	92.836	21.0172
28.500000	92.872	19.9787
29.000000	92.893	18.9522
29.500000	92.904	17.9787
30.000000	92.906	17.0660
30.400000	92.905	16.3742
30.700001	92.903	15.8757
31.100000	92.901	15.2336
31.500000	92.903	14.6035
32.000000	92.908	13.7966
32.500000	92.914	12.9359
33.000000	92.912	12.0386
33.500000	92.902	11.1645
34.000000	92.891	10.3553
34.500000	92.886	9.5864
35.000000	92.888	8.8065
35.500000	92.889	8.0034
36.000000	92.885	7.2147
36.500000	92.878	6.4714
37.000000	92.873	5.7669
37.500000	92.870	5.0811
38.200001	92.867	4.1444
38.700001	92.866	3.4862
39.500000	92.865	2.3917
40.000000	92.858	1.6817
40.599998	92.841	0.8647
41.200001	92.821	0.1335
41.799999	92.809	-0.5497
42.500000	92.804	-1.3858
43.099998	92.794	-2.1496
43.700001	92.774	-2.8867
44.400002	92.750	-3.6580
45.000000	92.737	-4.2912
45.500000	92.729	-4.8504
46.200001	92.712	-5.6711
46.799999	92.687	-6.3387
47.500000	92.662	-7.0370
48.200001	92.647	-7.7314
48.700001	92.637	-8.2657
49.400002	92.615	-9.0221
50.000000	92.592	-9.6169
50.799999	92.568	-10.3718
51.500000	92.547	-11.0550
52.200001	92.519	-11.7111
53.000000	92.493	-12.4278
53.799999	92.466	-13.1875
54.500000	92.439	-13.8484
55.200001	92.413	-14.5044
56.000000	92.379	-15.2814
57.000000	92.338	-16.1462
58.000000	92.318	-17.1001
59.000000	92.254	-18.0946
60.000000	92.196	-18.6474
60.799999	92.190	-19.1524
61.500000	92.175	-19.7139
62.200001	92.150	-20.2235
63.000000	92.129	-20.8094
64.000000	92.089	-21.6473
65.000000	92.036	-22.3934
66.000000	91.993	-23.1214
67.000000	91.950	-23.8635
68.000000	91.903	-24.5908
69.000000	91.856	-25.2354
70.000000	91.820	-25.8703
71.000000	91.779	-26.5624
72.000000	91.734	-27.2161
73.000000	91.689	-27.8791
74.000000	91.643	-28.5345
75.000000	91.587	-29.1932
76.199997	91.532	-29.7686
77.500000	91.497	-30.6680
78.800003	91.423	-31.3423
80.000000	91.389	-32.0971
81.199997	91.314	-32.7830
82.500000	91.263	-33.4416
83.800003	91.200	-34.1906
85.000000	91.147	-34.7696
86.199997	91.109	-35.4301
87.500000	91.049	-36.1425
88.500000	91.010	-36.6516
90.000000	90.941	-37.3787
91.199997	90.897	-37.9573
92.500000	90.838	-38.6097
93.800003	90.778	-39.2434
95.000000	90.722	-39.7824
96.199997	90.675	-40.3514
97.500000	90.616	-40.9360
98.800003	90.567	-41.4934
100.000000	90.517	-42.0316
101.500000	90.456	-42.6432
103.000000	90.389	-43.3126
104.400002	90.326	-43.8419
106.000000	90.263	-44.5206
107.500000	90.205	-45.1166
109.000000	90.142	-45.7499
110.599998	90.081	-46.3437
112.000000	90.022	-46.8835
113.800003	89.955	-47.5306
115.000000	89.906	-47.9823
117.199997	89.818	-48.7985
118.000000	89.779	-49.0748
120.599998	89.679	-50.0031
122.000000	89.630	-50.4600
124.099998	89.554	-51.1268
125.000000	89.522	-51.4454
126.500000	89.471	-51.9160
128.000000	89.418	-52.4220
131.500000	89.305	-53.5443
132.000000	89.287	-53.6967
134.000000	89.229	-54.2933
136.000000	89.159	-54.8474
138.000000	89.098	-55.4773
140.000000	89.029	-56.0807
143.000000	88.948	-56.9174
145.000000	88.880	-57.4227
147.500000	88.804	-58.1499
150.000000	88.730	-58.7666
152.500000	88.658	-59.4435
155.000000	88.584	-60.0793
157.500000	88.512	-60.7066
160.000000	88.441	-61.3162
162.500000	88.360	-61.9283
165.000000	88.280	-62.4935
167.500000	88.202	-63.0907
170.000000	88.123	-63.6516
172.500000	88.044	-64.2261
175.000000	87.972	-64.7961
177.500000	87.894	-65.3218
180.000000	87.817	-65.8567
182.500000	87.746	-66.3349
185.000000	87.676	-66.8930
187.500000	87.605	-67.3630
190.000000	87.533	-67.8947
192.500000	87.463	-68.3522
195.000000	87.393	-68.8351
197.500000	87.330	-69.3110
200.000000	87.265	-69.8351
203.000000	87.198	-70.3974
206.000000	87.128	-70.9537
209.000000	87.060	-71.4766
212.000000	86.993	-72.0071
214.000000	86.950	-72.3668
218.000000	86.869	-73.0612
220.000000	86.826	-73.3863
224.000000	86.743	-74.0192
227.000000	86.689	-74.5581
230.000000	86.629	-75.0543
233.000000	86.575	-75.5173
236.000000	86.512	-76.0015
240.000000	86.466	-76.6862
243.000000	86.401	-77.1342
247.000000	86.327	-77.7085
250.000000	86.271	-78.1623
254.000000	86.211	-78.7853
258.000000	86.147	-79.3520
262.000000	86.093	-79.9297
265.000000	86.048	-80.3315
269.000000	85.997	-80.9041
272.000000	85.955	-81.2934
276.000000	85.895	-81.8747
280.000000	85.851	-82.4368
285.000000	85.784	-83.1257
290.000000	85.730	-83.7676
295.000000	85.672	-84.4451
300.000000	85.618	-85.0864
304.000000	85.583	-85.6012
307.000000	85.549	-86.0267
311.000000	85.507	-86.5186
315.000000	85.471	-86.9930
320.000000	85.420	-87.6306
325.000000	85.386	-88.1874
330.000000	85.345	-88.8426
335.000000	85.299	-89.4146
340.000000	85.267	-90.0320
345.000000	85.231	-90.6530
350.000000	85.199	-91.2480
355.000000	85.168	-91.8200
360.000000	85.137	-92.3679
365.000000	85.107	-93.0513
370.000000	85.087	-93.6063
375.000000	85.061	-94.1991
382.000000	85.032	-94.9504
387.000000	85.008	-95.5654
395.000000	84.972	-96.4946
400.000000	84.955	-97.0017
406.000000	84.938	-97.6846
412.000000	84.912	-98.4054
418.000000	84.908	-99.1100
425.000000	84.882	-99.8849
431.000000	84.868	-100.5465
437.000000	84.850	-101.2218
444.000000	84.838	-101.9716
450.000000	84.818	-102.6456
455.000000	84.808	-103.1640
462.000000	84.809	-103.8937
468.000000	84.791	-104.5331
475.000000	84.785	-105.3664
482.000000	84.778	-106.1247
487.000000	84.773	-106.5897
494.000000	84.767	-107.2778
500.000000	84.757	-107.9293
508.000000	84.741	-108.8234
515.000000	84.750	-109.4728
522.000000	84.740	-110.1984
530.000000	84.734	-110.9644
538.000000	84.728	-111.7317
545.000000	84.727	-112.3852
552.000000	84.725	-113.0318
560.000000	84.724	-113.7428
570.000000	84.724	-114.6156
580.000000	84.729	-115.4138
590.000000	84.741	-116.3416
600.000000	84.752	-117.0927
608.000000	84.771	-117.6327
615.000000	84.796	-118.2262
622.000000	84.818	-118.8278
630.000000	84.847	-119.4783
640.000000	84.882	-120.4112
650.000000	84.918	-121.4291
660.000000	84.935	-122.3920
670.000000	84.956	-123.3828
680.000000	84.969	-124.3716
690.000000	84.966	-125.2764
700.000000	84.974	-126.0887
710.000000	84.968	-126.9811
720.000000	84.973	-127.7602
730.000000	84.966	-128.6176
740.000000	84.970	-129.3056
750.000000	84.962	-129.9837
762.000000	84.955	-130.8326
775.000000	84.969	-131.6349
788.000000	84.952	-132.3548
800.000000	84.960	-133.0760
812.000000	84.955	-133.6629
825.000000	84.948	-134.3508
838.000000	84.943	-134.8595
850.000000	84.954	-135.3668
862.000000	84.955	-135.8450
875.000000	84.967	-136.2860
885.000000	84.982	-136.5975
900.000000	85.025	-137.0691
912.000000	85.052	-137.5210
925.000000	85.082	-137.8246
938.000000	85.134	-138.1555
950.000000	85.181	-138.5335
962.000000	85.223	-138.7607
975.000000	85.285	-139.1348
988.000000	85.356	-139.5252
1000.000000	85.414	-139.9011
1015.000000	85.525	-140.0798
1030.000000	85.629	-140.5217
1044.000000	85.746	-140.9429
1060.000000	85.885	-141.4100
1075.000000	86.001	-141.8881
1090.000000	86.136	-142.3528
1106.000000	86.271	-142.8964
1120.000000	86.392	-143.4184
1138.000000	86.545	-144.1249
1150.000000	86.642	-144.5127
1172.000000	86.837	-145.4367
1180.000000	86.911	-145.8315
1206.000000	87.130	-146.8953
1220.000000	87.251	-147.5359
1241.000000	87.420	-148.4888
1250.000000	87.494	-148.9126
1265.000000	87.593	-149.5894
1280.000000	87.681	-150.2878
1315.000000	87.882	-151.9034
1320.000000	87.915	-152.1069
1340.000000	88.027	-153.0384
1360.000000	88.141	-154.0133
1380.000000	88.239	-154.8371
1400.000000	88.358	-155.7530
1430.000000	88.508	-157.0377
1450.000000	88.619	-157.9517
1475.000000	88.748	-159.0579
1500.000000	88.876	-160.1568
1525.000000	89.006	-161.2200
1550.000000	89.134	-162.2705
1575.000000	89.270	-163.2987
1600.000000	89.396	-164.3980
1625.000000	89.564	-165.4789
1650.000000	89.731	-166.5541
1675.000000	89.904	-167.6866
1700.000000	90.066	-168.8403
1725.000000	90.235	-170.0489
1750.000000	90.391	-171.2187
1775.000000	90.554	-172.4681
1800.000000	90.702	-173.7383
1825.000000	90.856	-175.0322
1850.000000	91.003	-176.4065
1875.000000	91.141	-177.8343
1900.000000	91.265	-179.2653
1925.000000	91.388	179.2620
1950.000000	91.493	177.7510
1975.000000	91.586	176.1458
2000.000000	91.652	174.5163
2030.000000	91.727	172.7388
2060.000000	91.776	170.8179
2090.000000	91.794	168.9592
2120.000000	91.789	167.0887
2140.000000	91.771	165.9392
2180.000000	91.713	163.6662
2200.000000	91.674	162.5855
2240.000000	91.565	160.5946
2270.000000	91.465	159.2980
2300.000000	91.357	158.0218
2330.000000	91.240	156.9443
2360.000000	91.108	155.9973
2400.000000	90.923	154.8649
2430.000000	90.791	154.2012
2470.000000	90.601	153.4885
2500.000000	90.467	153.0973
2540.000000	90.291	152.7781
2580.000000	90.110	152.5359
2620.000000	89.946	152.4896
2650.000000	89.833	152.5117
2690.000000	89.689	152.6958
2720.000000	89.587	152.8150
2760.000000	89.464	153.1841
2800.000000	89.359	153.6201
2850.000000	89.234	154.1650
2900.000000	89.144	154.8407
2950.000000	89.083	155.6548
3000.000000	89.034	156.5503
3040.000000	88.994	157.0837
3070.000000	88.991	157.6451
3110.000000	88.983	158.3328
3150.000000	88.986	158.9912
3200.000000	89.000	159.8043
3250.000000	89.037	160.6679
3300.000000	89.080	161.5262
3350.000000	89.138	162.3144
3400.000000	89.200	163.0935
3450.000000	89.287	163.7662
3500.000000	89.368	164.4210
3550.000000	89.468	165.0555
3600.000000	89.578	165.5920
3650.000000	89.683	166.1312
3700.000000	89.790	166.5476
3750.000000	89.900	166.9916
3820.000000	90.085	167.4181
3870.000000	90.204	167.7128
3950.000000	90.415	167.8454
4000.000000	90.552	167.9372
4060.000000	90.700	167.9615
4120.000000	90.860	167.8145
4180.000000	91.004	167.5266
4250.000000	91.191	167.0100
4310.000000	91.318	166.3740
4370.000000	91.455	165.5585
4440.000000	91.592	164.2965
4500.000000	91.686	162.9876
4550.000000	91.723	161.7279
4620.000000	91.742	159.5575
4680.000000	91.688	157.5929
4750.000000	91.499	155.1052
4820.000000	91.193	152.8867
4870.000000	90.919	151.7043
4940.000000	90.453	150.9527
5000.000000	90.048	150.9923
5080.000000	89.568	152.1292
5150.000000	89.224	153.7245
5220.000000	88.979	155.6046
5300.000000	88.783	157.9314
5380.000000	88.668	160.3048
5450.000000	88.632	162.3052
5520.000000	88.635	164.3186
5600.000000	88.697	166.5214
5700.000000	88.854	169.0938
5800.000000	89.101	171.2534
5900.000000	89.435	172.6722
6000.000000	89.814	173.2318
6080.000000	90.086	172.9388
6150.000000	90.288	172.3029
6220.000000	90.416	171.0688
6300.000000	90.474	169.7339
6400.000000	90.497	168.1267
6500.000000	90.411	167.1963
6600.000000	90.280	167.0372
6700.000000	90.262	167.2157
6800.000000	90.191	167.2036
6900.000000	90.167	167.3849
7000.000000	90.136	167.3851
7100.000000	90.068	167.0066
7200.000000	89.921	166.2844
7300.000000	89.633	166.1022
7400.000000	89.227	166.2309
7500.000000	88.773	167.7458
7620.000000	88.324	170.9446
7750.000000	88.082	175.3576
7880.000000	88.057	178.9797
8000.000000	88.032	-178.7335
8120.000000	87.736	-176.6943
8250.000000	87.358	-174.0852
8380.000000	86.933	-170.2677
8500.000000	86.591	-166.2989
8620.000000	86.316	-161.9281
8750.000000	86.133	-156.8752
8850.000000	86.058	-152.8194
9000.000000	86.082	-147.0159
9120.000000	86.189	-142.6715
9250.000000	86.367	-138.3755
9380.000000	86.570	-134.9024
9500.000000	86.780	-132.2024
9620.000000	87.005	-129.3863
9750.000000	87.312	-127.6589
9880.000000	87.914	-126.6283
10000.000000	87.904	-130.7479
10150.000000	87.313	-132.8544
10300.000000	86.477	-132.7345
10440.000000	85.509	-130.1862
10600.000000	84.552	-123.7723
10750.000000	83.993	-116.6905
10900.000000	83.590	-110.5716
11060.000000	83.129	-103.5842
11200.000000	82.736	-96.9991
11380.000000	82.330	-87.7268
11500.000000	82.087	-81.1718
11720.000000	82.037	-68.5923
11800.000000	82.067	-63.8420
12060.000000	82.519	-51.2954
12200.000000	82.775	-45.5830
12410.000000	83.120	-38.8040
12500.000000	83.240	-36.4927
12650.000000	83.283	-33.0105
12800.000000	83.113	-30.0293
13150.000000	82.140	-22.1207
13200.000000	81.912	-21.1448
13400.000000	81.019	-14.4591
13600.000000	80.163	-6.0650
13800.000000	79.259	3.7296
14000.000000	78.479	14.7361
14300.000000	77.533	31.1434
14500.000000	77.068	42.9265
14750.000000	76.624	57.2897
15000.000000	75.979	71.8242
15250.000000	75.490	91.6492
15500.000000	76.120	110.1314
15750.000000	77.046	124.5338
16000.000000	77.904	137.1632
16250.000000	78.806	146.0725
16500.000000	79.304	159.3398
16750.000000	80.794	176.9682
17000.000000	83.435	-170.6606
17250.000000	86.245	-167.3496
17500.000000	88.612	-170.7278
17750.000000	90.265	-178.8984
18000.000000	91.034	169.6430
18250.000000	90.757	155.6136
18500.000000	89.020	142.8661
18750.000000	86.296	136.7135
19000.000000	83.216	138.0736
19250.000000	80.394	143.9423
19500.000000	77.539	151.4574
19750.000000	74.588	160.8698
