* Measurement data measured by REW V5.20.13
* Source: C:\Users\marcu\OneDrive\Desktop\audio_db\7Hz Legato SF W1 R.txt
* Format: Comma/Tab/Space delimited data
* Dated: May 29, 2023 8:27:35 AM
* REW Settings:
*  C-weighting compensation: Off
*  Target level: 75.0 dB
* Note: ; Measurement imported from C:\Users\marcu\OneDrive\Desktop\audio_db\7Hz Legato SF W1 R.txt Format: Comma/Tab/Space delimited data 54613 values loaded, 0 Hz to 20,000 Hz 
* Measurement: 7Hz Legato SF W1 R
* Smoothing: None
* Frequency Step: 1/48 octave
* Start Frequency: 1.000 Hz
*
* Freq(Hz)	SPL(dB)	Phase(degrees)
1.000000	74.092	-61.4159
1.015000	73.922	-62.2154
1.030000	73.747	-62.9958
1.044000	73.577	-63.7055
1.060000	73.375	-64.4930
1.075000	73.179	-65.2069
1.090000	72.975	-65.8956
1.106000	72.748	-66.6171
1.120000	72.540	-67.3240
1.138000	72.261	-68.3435
1.150000	72.067	-69.0802
1.172000	71.697	-70.5201
1.180000	71.558	-71.0647
1.206000	71.094	-72.8741
1.220000	70.836	-73.8532
1.241000	70.440	-75.2941
1.250000	70.267	-75.8924
1.265000	69.976	-76.8517
1.280000	69.682	-77.7504
1.315000	68.986	-79.5250
1.320000	68.885	-79.7334
1.340000	68.483	-80.4312
1.360000	68.081	-80.8846
1.380000	67.679	-81.0574
1.400000	67.281	-80.9130
1.430000	66.692	-80.0222
1.450000	66.308	-78.9258
1.475000	65.832	-76.9033
1.500000	65.307	-73.9564
1.525000	64.732	-70.1576
1.550000	64.120	-65.6399
1.575000	63.486	-60.5362
1.600000	62.846	-54.9795
1.625000	62.213	-49.1028
1.650000	61.602	-43.0389
1.675000	61.027	-36.9209
1.700000	60.503	-30.8816
1.725000	60.045	-25.0542
1.750000	59.667	-19.5714
1.775000	59.383	-14.5662
1.800000	59.208	-10.1717
1.825000	59.157	-6.5207
1.850000	59.248	-3.5777
1.875000	59.489	-0.9955
1.900000	59.861	1.2623
1.925000	60.344	3.2165
1.950000	60.920	4.8879
1.975000	61.569	6.2971
2.000000	62.271	7.4650
2.030000	63.159	8.5771
2.060000	64.062	9.4073
2.090000	64.949	9.9915
2.120000	65.785	10.3655
2.140000	66.298	10.5158
2.180000	67.174	10.6265
2.200000	67.517	10.6067
2.240000	68.098	10.1258
2.270000	68.479	9.3352
2.300000	68.818	8.2329
2.330000	69.121	6.8698
2.360000	69.391	5.2970
2.400000	69.710	2.9620
2.430000	69.924	1.0983
2.470000	70.185	-1.4392
2.500000	70.369	-3.3158
2.540000	70.607	-5.6855
2.580000	70.843	-7.8304
2.620000	71.051	-9.9908
2.650000	71.186	-11.6558
2.690000	71.341	-13.9205
2.720000	71.441	-15.6421
2.760000	71.554	-17.9536
2.800000	71.649	-20.2660
2.850000	71.748	-23.1292
2.900000	71.833	-25.9278
2.950000	71.908	-28.6381
3.000000	71.958	-31.3417
3.040000	71.979	-33.5015
3.070000	71.986	-35.1105
3.110000	71.983	-37.2309
3.150000	71.971	-39.3102
3.200000	71.944	-41.8309
3.250000	71.907	-44.2401
3.300000	71.867	-46.5116
3.350000	71.811	-48.6854
3.400000	71.738	-50.7883
3.450000	71.651	-52.8004
3.500000	71.556	-54.7021
3.550000	71.460	-56.4735
3.600000	71.368	-58.0948
3.650000	71.286	-59.5464
3.700000	71.210	-60.8106
3.750000	71.126	-61.8937
3.820000	71.008	-63.1454
3.870000	70.931	-63.8787
3.950000	70.842	-64.8313
4.000000	70.818	-65.3212
4.060000	70.829	-65.8014
4.120000	70.873	-66.0328
4.180000	70.946	-66.0792
4.250000	71.066	-66.0258
4.310000	71.197	-65.9956
4.370000	71.353	-66.0795
4.440000	71.570	-66.3725
4.500000	71.799	-66.6634
4.550000	72.012	-66.9413
4.620000	72.331	-67.4145
4.680000	72.611	-67.9257
4.750000	72.927	-68.6811
4.820000	73.235	-69.6431
4.870000	73.462	-70.4495
4.940000	73.782	-71.7069
5.000000	74.052	-72.8697
5.080000	74.393	-74.4852
5.150000	74.665	-75.9157
5.220000	74.917	-77.4374
5.300000	75.188	-79.2710
5.380000	75.436	-81.1314
5.450000	75.635	-82.7207
5.520000	75.814	-84.2308
5.600000	75.994	-85.9362
5.700000	76.185	-88.0164
5.800000	76.349	-89.9565
5.900000	76.496	-91.6782
6.000000	76.613	-93.2135
6.080000	76.692	-94.3167
6.150000	76.758	-95.1888
6.220000	76.826	-95.9722
6.300000	76.905	-96.7376
6.400000	76.998	-97.5045
6.500000	77.094	-98.1340
6.600000	77.204	-98.7043
6.700000	77.331	-99.1773
6.800000	77.469	-99.5552
6.900000	77.615	-99.9299
7.000000	77.769	-100.3795
7.100000	77.935	-100.8589
7.200000	78.107	-101.3738
7.300000	78.274	-101.9525
7.400000	78.433	-102.6200
7.500000	78.590	-103.3657
7.620000	78.768	-104.3215
7.750000	78.935	-105.3898
7.880000	79.080	-106.5265
8.000000	79.195	-107.5763
8.120000	79.293	-108.5678
8.250000	79.377	-109.6078
8.380000	79.447	-110.5842
8.500000	79.505	-111.3975
8.620000	79.554	-112.1340
8.750000	79.603	-112.8713
8.850000	79.645	-113.4043
9.000000	79.708	-114.1275
9.120000	79.761	-114.6898
9.250000	79.823	-115.3164
9.380000	79.890	-115.9418
9.500000	79.952	-116.5456
9.620000	80.015	-117.1930
9.750000	80.084	-117.9305
9.880000	80.140	-118.6967
10.000000	80.175	-119.4328
10.150000	80.202	-120.3859
10.300000	80.216	-121.3366
10.440000	80.217	-122.2251
10.600000	80.211	-123.2268
10.750000	80.204	-124.1343
10.900000	80.195	-125.0194
11.060000	80.188	-125.9424
11.200000	80.183	-126.7296
11.380000	80.180	-127.7341
11.500000	80.180	-128.4027
11.720000	80.183	-129.6263
11.800000	80.185	-130.0735
12.060000	80.191	-131.5262
12.200000	80.193	-132.2980
12.410000	80.198	-133.4385
12.500000	80.206	-133.9137
12.650000	80.228	-134.6894
12.800000	80.255	-135.4445
13.150000	80.325	-137.1235
13.200000	80.335	-137.3573
13.400000	80.380	-138.2771
13.600000	80.424	-139.1815
13.800000	80.469	-140.0761
14.000000	80.509	-140.9514
14.300000	80.562	-142.2190
14.500000	80.591	-143.0148
14.750000	80.624	-143.9445
15.000000	80.653	-144.8000
15.250000	80.682	-145.5947
15.500000	80.711	-146.3542
15.750000	80.739	-147.0941
16.000000	80.767	-147.8347
16.250000	80.793	-148.5761
16.500000	80.815	-149.3151
16.750000	80.830	-150.0435
17.000000	80.836	-150.7514
17.250000	80.836	-151.4343
17.500000	80.829	-152.0876
17.750000	80.818	-152.7055
18.000000	80.805	-153.2850
18.250000	80.793	-153.8221
18.500000	80.783	-154.3209
18.750000	80.780	-154.7974
19.000000	80.788	-155.2674
19.250000	80.805	-155.7686
19.500000	80.828	-156.3204
19.750000	80.856	-156.9373
20.000000	80.883	-157.6204
20.299999	80.910	-158.4954
20.600000	80.930	-159.3917
20.900000	80.942	-160.2666
21.200001	80.950	-161.0913
21.400000	80.956	-161.6133
21.799999	80.970	-162.6077
22.000000	80.978	-163.0886
22.400000	80.995	-164.0289
22.700001	81.006	-164.7076
23.000000	81.014	-165.3509
23.299999	81.021	-165.9540
23.600000	81.027	-166.5230
24.000000	81.037	-167.2479
24.299999	81.043	-167.7816
24.700001	81.047	-168.4875
25.000000	81.046	-169.0088
25.400000	81.039	-169.6851
25.799999	81.028	-170.3393
26.200001	81.014	-170.9803
26.500000	81.003	-171.4591
26.900000	80.986	-172.1003
27.200001	80.972	-172.5849
27.600000	80.953	-173.2357
28.000000	80.934	-173.8883
28.500000	80.909	-174.6946
29.000000	80.887	-175.4799
29.500000	80.870	-176.2510
30.000000	80.858	-177.0221
30.400000	80.848	-177.6349
30.700001	80.840	-178.0833
31.100000	80.829	-178.6559
31.500000	80.819	-179.2002
32.000000	80.807	-179.8572
32.500000	80.793	179.4983
33.000000	80.774	178.8763
33.500000	80.752	178.2923
34.000000	80.729	177.7401
34.500000	80.707	177.1940
35.000000	80.682	176.6364
35.500000	80.654	176.0685
36.000000	80.624	175.5042
36.500000	80.590	174.9561
37.000000	80.558	174.4267
37.500000	80.529	173.9066
38.200001	80.492	173.1759
38.700001	80.468	172.6559
39.500000	80.430	171.8406
40.000000	80.408	171.3328
40.599998	80.381	170.7258
41.200001	80.350	170.1469
41.799999	80.319	169.6049
42.500000	80.284	168.9894
43.099998	80.253	168.4611
43.700001	80.220	167.9432
44.400002	80.181	167.3547
45.000000	80.148	166.8506
45.500000	80.120	166.4289
46.200001	80.077	165.8520
46.799999	80.041	165.3839
47.500000	80.001	164.8598
48.200001	79.963	164.3332
48.700001	79.935	163.9519
49.400002	79.894	163.4216
50.000000	79.858	162.9777
50.799999	79.807	162.4110
51.500000	79.764	161.9396
52.200001	79.724	161.4710
53.000000	79.677	160.9329
53.799999	79.630	160.4179
54.500000	79.590	159.9869
55.200001	79.552	159.5608
56.000000	79.509	159.0666
57.000000	79.448	158.4524
58.000000	79.383	157.9110
59.000000	79.328	157.3719
60.000000	79.270	156.7934
60.799999	79.220	156.3529
61.500000	79.180	155.9669
62.200001	79.138	155.5713
63.000000	79.086	155.1393
64.000000	79.021	154.6461
65.000000	78.955	154.1805
66.000000	78.892	153.7331
67.000000	78.829	153.2862
68.000000	78.767	152.8464
69.000000	78.705	152.4056
70.000000	78.643	151.9680
71.000000	78.581	151.5549
72.000000	78.522	151.1449
73.000000	78.462	150.7388
74.000000	78.400	150.3452
75.000000	78.339	149.9617
76.199997	78.264	149.5273
77.500000	78.186	149.0610
78.800003	78.106	148.6038
80.000000	78.033	148.2056
81.199997	77.962	147.8135
82.500000	77.885	147.3912
83.800003	77.807	146.9796
85.000000	77.738	146.6285
86.199997	77.673	146.2482
87.500000	77.594	145.8483
88.500000	77.534	145.5816
90.000000	77.447	145.1786
91.199997	77.377	144.8614
92.500000	77.303	144.5233
93.800003	77.228	144.1929
95.000000	77.161	143.8975
96.199997	77.093	143.6094
97.500000	77.021	143.3104
98.800003	76.946	143.0217
100.000000	76.880	142.7686
101.500000	76.797	142.4443
103.000000	76.715	142.1315
104.400002	76.638	141.8510
106.000000	76.553	141.5401
107.500000	76.471	141.2578
109.000000	76.389	140.9877
110.599998	76.302	140.7230
112.000000	76.229	140.4932
113.800003	76.131	140.1942
115.000000	76.065	140.0187
117.199997	75.946	139.6913
118.000000	75.903	139.5837
120.599998	75.763	139.2698
122.000000	75.687	139.1162
124.099998	75.574	138.9276
125.000000	75.529	138.8551
126.500000	75.452	138.7601
128.000000	75.382	138.7133
131.500000	75.236	138.6313
132.000000	75.217	138.6328
134.000000	75.156	138.6287
136.000000	75.111	138.5384
138.000000	75.062	138.3492
140.000000	75.006	138.1241
143.000000	74.914	137.7452
145.000000	74.846	137.4776
147.500000	74.753	137.1733
150.000000	74.655	136.9017
152.500000	74.554	136.6533
155.000000	74.456	136.4424
157.500000	74.359	136.2538
160.000000	74.256	136.1240
162.500000	74.146	136.0178
165.000000	74.034	135.9446
167.500000	73.931	135.9205
170.000000	73.833	135.8957
172.500000	73.737	135.8912
175.000000	73.654	135.9138
177.500000	73.586	135.9036
180.000000	73.516	135.7936
182.500000	73.432	135.6830
185.000000	73.352	135.5729
187.500000	73.270	135.4078
190.000000	73.182	135.2737
192.500000	73.097	135.1563
195.000000	73.008	135.0571
197.500000	72.921	134.9789
200.000000	72.835	134.9193
203.000000	72.737	134.8826
206.000000	72.644	134.8437
209.000000	72.551	134.7943
212.000000	72.457	134.7646
214.000000	72.398	134.7522
218.000000	72.279	134.7408
220.000000	72.222	134.7383
224.000000	72.105	134.7360
227.000000	72.021	134.7357
230.000000	71.938	134.7497
233.000000	71.857	134.7662
236.000000	71.775	134.8027
240.000000	71.666	134.8512
243.000000	71.588	134.9100
247.000000	71.486	134.9723
250.000000	71.409	135.0250
254.000000	71.311	135.1000
258.000000	71.214	135.1760
262.000000	71.123	135.2736
265.000000	71.054	135.3505
269.000000	70.962	135.4612
272.000000	70.896	135.5456
276.000000	70.809	135.6669
280.000000	70.721	135.7811
285.000000	70.615	135.9274
290.000000	70.512	136.0814
295.000000	70.411	136.2542
300.000000	70.315	136.4297
304.000000	70.236	136.5729
307.000000	70.179	136.6783
311.000000	70.104	136.8245
315.000000	70.031	136.9736
320.000000	69.939	137.1564
325.000000	69.852	137.3580
330.000000	69.767	137.5687
335.000000	69.681	137.7846
340.000000	69.599	138.0018
345.000000	69.520	138.1974
350.000000	69.441	138.4285
355.000000	69.361	138.6654
360.000000	69.286	138.8863
365.000000	69.213	139.1008
370.000000	69.138	139.3288
375.000000	69.070	139.5809
382.000000	68.971	139.8929
387.000000	68.903	140.1473
395.000000	68.803	140.5190
400.000000	68.742	140.7642
406.000000	68.670	141.0432
412.000000	68.597	141.3419
418.000000	68.525	141.6311
425.000000	68.446	141.9900
431.000000	68.382	142.2770
437.000000	68.319	142.5732
444.000000	68.242	142.9286
450.000000	68.177	143.2327
455.000000	68.125	143.4543
462.000000	68.054	143.8057
468.000000	67.987	144.1592
475.000000	67.909	144.6153
482.000000	67.851	145.1073
487.000000	67.817	145.4382
494.000000	67.772	145.8307
500.000000	67.734	146.1386
508.000000	67.682	146.5600
515.000000	67.634	146.9363
522.000000	67.591	147.2762
530.000000	67.547	147.7005
538.000000	67.503	148.1143
545.000000	67.462	148.4755
552.000000	67.420	148.8542
560.000000	67.378	149.2686
570.000000	67.323	149.7972
580.000000	67.279	150.3186
590.000000	67.238	150.8666
600.000000	67.193	151.3997
608.000000	67.163	151.8153
615.000000	67.137	152.1967
622.000000	67.111	152.5724
630.000000	67.085	152.9999
640.000000	67.054	153.5396
650.000000	67.031	154.0565
660.000000	67.008	154.5989
670.000000	66.988	155.1417
680.000000	66.967	155.6894
690.000000	66.954	156.2537
700.000000	66.943	156.7652
710.000000	66.936	157.3053
720.000000	66.930	157.8625
730.000000	66.928	158.3906
740.000000	66.922	158.9179
750.000000	66.922	159.4649
762.000000	66.927	160.1017
775.000000	66.940	160.8073
788.000000	66.955	161.4929
800.000000	66.970	162.1164
812.000000	66.984	162.7414
825.000000	67.002	163.4136
838.000000	67.021	164.0826
850.000000	67.049	164.6925
862.000000	67.081	165.2951
875.000000	67.117	165.9289
885.000000	67.148	166.4171
900.000000	67.201	167.1515
912.000000	67.246	167.6839
925.000000	67.305	168.2662
938.000000	67.365	168.8284
950.000000	67.426	169.3279
962.000000	67.489	169.8051
975.000000	67.559	170.2851
988.000000	67.638	170.7400
1000.000000	67.713	171.1311
1015.000000	67.818	171.6192
1030.000000	67.933	172.0680
1044.000000	68.041	172.4281
1060.000000	68.167	172.8222
1075.000000	68.285	173.1302
1090.000000	68.409	173.4040
1106.000000	68.540	173.6736
1120.000000	68.653	173.8642
1138.000000	68.800	174.0645
1150.000000	68.900	174.1688
1172.000000	69.079	174.2994
1180.000000	69.143	174.3338
1206.000000	69.349	174.3952
1220.000000	69.457	174.4073
1241.000000	69.614	174.3662
1250.000000	69.678	174.3324
1265.000000	69.771	174.2701
1280.000000	69.857	174.1772
1315.000000	70.046	173.9246
1320.000000	70.073	173.8768
1340.000000	70.176	173.6536
1360.000000	70.274	173.4090
1380.000000	70.371	173.1630
1400.000000	70.465	172.8856
1430.000000	70.599	172.4255
1450.000000	70.683	172.1002
1475.000000	70.784	171.6887
1500.000000	70.878	171.2644
1525.000000	70.968	170.8323
1550.000000	71.049	170.3930
1575.000000	71.127	169.9446
1600.000000	71.207	169.5240
1625.000000	71.306	169.1163
1650.000000	71.408	168.7296
1675.000000	71.504	168.3799
1700.000000	71.605	168.0661
1725.000000	71.706	167.7831
1750.000000	71.810	167.5224
1775.000000	71.917	167.2783
1800.000000	72.027	167.0622
1825.000000	72.151	166.8441
1850.000000	72.283	166.6006
1875.000000	72.426	166.3047
1900.000000	72.578	165.9212
1925.000000	72.735	165.4279
1950.000000	72.889	164.7989
1975.000000	73.030	164.0212
2000.000000	73.153	163.1566
2030.000000	73.269	162.0643
2060.000000	73.356	160.9850
2090.000000	73.422	159.9749
2120.000000	73.478	159.0629
2140.000000	73.511	158.5006
2180.000000	73.574	157.4430
2200.000000	73.608	156.9383
2240.000000	73.676	155.9356
2270.000000	73.726	155.1591
2300.000000	73.773	154.3693
2330.000000	73.815	153.5509
2360.000000	73.850	152.6968
2400.000000	73.880	151.5272
2430.000000	73.888	150.6683
2470.000000	73.883	149.5935
2500.000000	73.877	148.8442
2540.000000	73.874	147.8334
2580.000000	73.871	146.6149
2620.000000	73.824	145.1433
2650.000000	73.740	143.9880
2690.000000	73.551	142.6142
2720.000000	73.361	141.8457
2760.000000	73.063	141.3221
2800.000000	72.741	141.4924
2850.000000	72.359	142.7843
2900.000000	72.082	145.1989
2950.000000	71.993	148.3848
3000.000000	72.139	151.6434
3040.000000	72.413	153.7976
3070.000000	72.685	154.9377
3110.000000	73.097	155.6730
3150.000000	73.515	155.4674
3200.000000	73.974	154.0802
3250.000000	74.306	151.7661
3300.000000	74.478	148.9537
3350.000000	74.490	146.1409
3400.000000	74.373	143.7093
3450.000000	74.178	141.8280
3500.000000	73.945	140.4766
3550.000000	73.695	139.5474
3600.000000	73.437	138.9630
3650.000000	73.172	138.6863
3700.000000	72.900	138.7068
3750.000000	72.630	139.0410
3820.000000	72.276	140.0413
3870.000000	72.054	141.0615
3950.000000	71.756	142.9832
4000.000000	71.602	144.2940
4060.000000	71.438	145.9432
4120.000000	71.300	147.6369
4180.000000	71.181	149.3915
4250.000000	71.057	151.4911
4310.000000	70.962	153.3685
4370.000000	70.882	155.3679
4440.000000	70.813	157.8386
4500.000000	70.781	160.0445
4550.000000	70.775	161.9299
4620.000000	70.797	164.6001
4680.000000	70.842	166.8791
4750.000000	70.925	169.5035
4820.000000	71.033	172.1005
4870.000000	71.126	173.9141
4940.000000	71.279	176.4239
5000.000000	71.422	178.5232
5080.000000	71.629	-178.7581
5150.000000	71.830	-176.4489
5220.000000	72.051	-174.2180
5300.000000	72.336	-171.8019
5380.000000	72.655	-169.5565
5450.000000	72.956	-167.7664
5520.000000	73.278	-166.1743
5600.000000	73.663	-164.6116
5700.000000	74.162	-163.0804
5800.000000	74.673	-162.0392
5900.000000	75.181	-161.4964
6000.000000	75.679	-161.4529
6080.000000	76.066	-161.7680
6150.000000	76.396	-162.3116
6220.000000	76.720	-163.1655
6300.000000	77.082	-164.6083
6400.000000	77.519	-167.1871
6500.000000	77.835	-170.5542
6600.000000	77.965	-174.4019
6700.000000	77.887	-178.2502
6800.000000	77.611	178.3680
6900.000000	77.178	175.8307
7000.000000	76.639	174.3968
7100.000000	76.056	174.1293
7200.000000	75.487	174.9184
7300.000000	74.967	176.5373
7400.000000	74.514	178.8139
7500.000000	74.139	-178.4577
7620.000000	73.797	-174.7945
7750.000000	73.550	-170.6059
7880.000000	73.423	-166.3662
8000.000000	73.380	-162.5151
8120.000000	73.352	-158.8534
8250.000000	73.394	-155.2014
8380.000000	73.534	-152.0389
8500.000000	73.740	-149.7319
8620.000000	74.008	-148.1544
8750.000000	74.343	-147.4823
8850.000000	74.606	-147.8419
9000.000000	74.944	-150.0119
9120.000000	75.083	-153.1711
9250.000000	75.012	-157.7950
9380.000000	74.633	-163.1152
9500.000000	73.976	-167.9754
9620.000000	73.034	-172.1356
9750.000000	71.715	-175.1861
9880.000000	70.146	-175.9470
10000.000000	68.598	-173.9755
10150.000000	66.828	-167.8466
10300.000000	65.489	-159.1461
10440.000000	64.647	-150.5657
10600.000000	63.995	-141.2367
10750.000000	63.533	-133.1427
10900.000000	63.146	-125.4263
11060.000000	62.797	-117.3564
11200.000000	62.542	-110.3164
11380.000000	62.271	-101.1940
11500.000000	62.138	-95.0528
11720.000000	61.994	-83.7403
11800.000000	61.981	-79.6121
12060.000000	62.072	-66.2402
12200.000000	62.212	-59.1082
12410.000000	62.550	-48.6840
12500.000000	62.732	-44.3446
12650.000000	63.090	-37.2978
12800.000000	63.526	-30.5991
13150.000000	64.942	-17.1456
13200.000000	65.192	-15.5810
13400.000000	66.304	-10.6825
13600.000000	67.500	-8.9206
13800.000000	68.480	-10.6464
14000.000000	69.194	-14.6061
14300.000000	69.391	-27.3649
14500.000000	68.185	-35.9095
14750.000000	65.806	-38.3486
15000.000000	63.516	-33.3115
15250.000000	61.654	-24.3456
15500.000000	60.215	-13.4832
15750.000000	59.151	-1.5228
16000.000000	58.463	10.9442
16250.000000	58.280	23.5911
16500.000000	58.420	36.3029
16750.000000	58.823	48.8537
17000.000000	59.471	60.8947
17250.000000	60.368	72.2680
17500.000000	61.518	82.5302
17750.000000	62.945	90.9678
18000.000000	64.594	96.3036
18250.000000	66.254	96.8037
18500.000000	67.405	91.3310
18750.000000	67.445	82.3722
19000.000000	66.312	75.8818
19250.000000	64.532	75.1381
19500.000000	62.631	79.2747
19750.000000	60.820	86.6304
