* Measurement data measured by REW V5.30 beta 3
* Source: Microphone (2- USB Sound Device        ), MICROPHONE (Master Volume), L, volume: 0.660. Timing signal peak level -25.9 dBFS, measurement signal peak level -23.6 dBFS
* Format: 256k Log Swept Sine, 1 sweep at -12.0 dBFS using an acoustic timing reference
* Dated: Dec 1, 2023 11:14:03 PM
* REW Settings:
*  C-weighting compensation: Off
*  Target level: 75.0 dB
* Note: Delay -0.0229 ms (-7.8 mm, -0.31 in) using estimated IR delay relative to Acoustic reference played from SPEAKER L with no timing offset
* Measurement: L MAGICONE LEFT Dec 1
* Smoothing: None
* Frequency Step: 1/48 octave
* Start Frequency: 1.000 Hz
*
* Freq(Hz) SPL(dB) Phase(degrees)
1.000000 119.953 123.8710
1.015000 119.795 123.0983
1.030000 119.631 122.3350
1.044000 119.472 121.6318
1.060000 119.285 120.8398
1.075000 119.103 120.1092
1.090000 118.914 119.3910
1.106000 118.707 118.6270
1.120000 118.526 117.8942
1.138000 118.293 116.8596
1.150000 118.138 116.1214
1.172000 117.852 114.6906
1.180000 117.747 114.1515
1.206000 117.399 112.3595
1.220000 117.207 111.3854
1.241000 116.912 109.9389
1.250000 116.782 109.3314
1.265000 116.560 108.3453
1.280000 116.331 107.4025
1.315000 115.764 105.4389
1.320000 115.679 105.1920
1.340000 115.327 104.3060
1.360000 114.954 103.6045
1.380000 114.560 103.1160
1.400000 114.143 102.8691
1.430000 113.467 103.0145
1.450000 112.981 103.4970
1.475000 112.321 104.5811
1.500000 111.525 106.1893
1.525000 110.599 108.2701
1.550000 109.571 110.7721
1.575000 108.470 113.6442
1.600000 107.324 116.8350
1.625000 106.161 120.2933
1.650000 105.010 123.9678
1.675000 103.898 127.8072
1.700000 102.855 131.7603
1.725000 101.907 135.7757
1.750000 101.084 139.8022
1.775000 100.414 143.7886
1.800000 99.926 147.6835
1.825000 99.646 151.4357
1.850000 99.600 155.1728
1.875000 99.774 159.2558
1.900000 100.142 163.6255
1.925000 100.675 168.2043
1.950000 101.346 172.9144
1.975000 102.127 177.6781
2.000000 102.990 -177.5822
2.030000 104.095 -172.0356
2.060000 105.230 -166.7698
2.090000 106.348 -161.9189
2.120000 107.400 -157.6172
2.140000 108.040 -155.1207
2.180000 109.114 -151.1983
2.200000 109.519 -149.8513
2.240000 110.191 -148.3740
2.270000 110.630 -148.1872
2.300000 111.017 -148.6663
2.330000 111.359 -149.7001
2.360000 111.661 -151.1773
2.400000 112.011 -153.6443
2.430000 112.240 -155.7233
2.470000 112.511 -158.5888
2.500000 112.696 -160.6638
2.540000 112.928 -163.1201
2.580000 113.150 -165.0563
2.620000 113.331 -166.9557
2.650000 113.437 -168.4368
2.690000 113.543 -170.4717
2.720000 113.599 -172.0328
2.760000 113.645 -174.1455
2.800000 113.666 -176.2767
2.850000 113.662 -178.9378
2.900000 113.635 178.4386
2.950000 113.592 175.8764
3.000000 113.515 173.2913
3.040000 113.427 171.2057
3.070000 113.347 169.6405
3.110000 113.224 167.5640
3.150000 113.084 165.5122
3.200000 112.887 163.0042
3.250000 112.671 160.5853
3.300000 112.438 158.2825
3.350000 112.179 156.0213
3.400000 111.888 153.7690
3.450000 111.573 151.5737
3.500000 111.241 149.4836
3.550000 110.898 147.5472
3.600000 110.551 145.8125
3.650000 110.207 144.3279
3.700000 109.857 143.1029
3.750000 109.474 142.0699
3.820000 108.911 140.9445
3.870000 108.516 140.3728
3.950000 107.946 139.8665
4.000000 107.656 139.8087
4.060000 107.396 140.0638
4.120000 107.191 140.8933
4.180000 107.040 142.1232
4.250000 106.939 143.7586
4.310000 106.924 145.0702
4.370000 106.982 146.0568
4.440000 107.159 146.6586
4.500000 107.425 146.9885
4.550000 107.707 147.1330
4.620000 108.158 147.0978
4.680000 108.564 146.8118
4.750000 109.020 146.1335
4.820000 109.454 144.9954
4.870000 109.780 143.8878
4.940000 110.247 142.0364
5.000000 110.644 140.2706
5.080000 111.148 137.8274
5.150000 111.550 135.7414
5.220000 111.924 133.5418
5.300000 112.326 130.8900
5.380000 112.700 128.2124
5.450000 113.003 125.9477
5.520000 113.283 123.8290
5.600000 113.571 121.4748
5.700000 113.889 118.6458
5.800000 114.173 116.0404
5.900000 114.430 113.7508
6.000000 114.650 111.7397
6.080000 114.806 110.3203
6.150000 114.935 109.2186
6.220000 115.065 108.2496
6.300000 115.210 107.3282
6.400000 115.380 106.4499
6.500000 115.548 105.7948
6.600000 115.731 105.2772
6.700000 115.928 104.9469
6.800000 116.135 104.7956
6.900000 116.352 104.7064
7.000000 116.582 104.5826
7.100000 116.827 104.4940
7.200000 117.081 104.4130
7.300000 117.336 104.2769
7.400000 117.588 104.0492
7.500000 117.844 103.7626
7.620000 118.143 103.3446
7.750000 118.448 102.7971
7.880000 118.736 102.1380
8.000000 118.983 101.4702
8.120000 119.209 100.7781
8.250000 119.430 99.9763
8.380000 119.629 99.1618
8.500000 119.791 98.4290
8.620000 119.933 97.6959
8.750000 120.067 96.9332
8.850000 120.157 96.3866
9.000000 120.271 95.6120
9.120000 120.348 95.0531
9.250000 120.420 94.5267
9.380000 120.479 94.0733
9.500000 120.530 93.7216
9.620000 120.579 93.4427
9.750000 120.629 93.2185
9.880000 120.684 93.0398
10.000000 120.742 92.9169
10.150000 120.822 92.8122
10.300000 120.916 92.6726
10.440000 121.017 92.5227
10.600000 121.142 92.2764
10.750000 121.267 91.9214
10.900000 121.398 91.4652
11.060000 121.532 90.8515
11.200000 121.646 90.1997
11.380000 121.781 89.2720
11.500000 121.861 88.5966
11.720000 121.989 87.3066
11.800000 122.030 86.8440
12.060000 122.144 85.3570
12.200000 122.200 84.6165
12.410000 122.279 83.5749
12.500000 122.316 83.1545
12.650000 122.378 82.4940
12.800000 122.445 81.8599
13.150000 122.624 80.4342
13.200000 122.651 80.2316
13.400000 122.764 79.4184
13.600000 122.879 78.6117
13.800000 122.995 77.8108
14.000000 123.110 77.0429
14.300000 123.282 75.9635
14.500000 123.398 75.3038
14.750000 123.548 74.5215
15.000000 123.701 73.7722
15.250000 123.854 73.0210
15.500000 124.001 72.2690
15.750000 124.139 71.5234
16.000000 124.264 70.8125
16.250000 124.378 70.1639
16.500000 124.484 69.5826
16.750000 124.587 69.0674
17.000000 124.689 68.5804
17.250000 124.791 68.0995
17.500000 124.891 67.5958
17.750000 124.984 67.0632
18.000000 125.068 66.5122
18.250000 125.143 65.9558
18.500000 125.211 65.4148
18.750000 125.275 64.8875
19.000000 125.338 64.3719
19.250000 125.401 63.8467
19.500000 125.465 63.3001
19.750000 125.528 62.7239
20.000000 125.588 62.1196
20.299999 125.657 61.3760
20.600000 125.722 60.6295
20.900000 125.785 59.8945
21.200001 125.850 59.1732
21.400000 125.894 58.6966
21.799999 125.983 57.7558
22.000000 126.027 57.2963
22.400000 126.117 56.4165
22.700001 126.185 55.8024
23.000000 126.257 55.2249
23.299999 126.333 54.6670
23.600000 126.412 54.1136
24.000000 126.515 53.3723
24.299999 126.588 52.8215
24.700001 126.677 52.1145
25.000000 126.740 51.6121
25.400000 126.819 50.9707
25.799999 126.892 50.3417
26.200001 126.956 49.7197
26.500000 126.998 49.2683
26.900000 127.048 48.6995
27.200001 127.085 48.2949
27.600000 127.135 47.7622
28.000000 127.187 47.2030
28.500000 127.248 46.4495
29.000000 127.300 45.6781
29.500000 127.348 44.9444
30.000000 127.401 44.2564
30.400000 127.451 43.7112
30.700001 127.491 43.2902
31.100000 127.547 42.7065
31.500000 127.599 42.1082
32.000000 127.659 41.3759
32.500000 127.715 40.6972
33.000000 127.770 40.0730
33.500000 127.827 39.4732
34.000000 127.882 38.8745
34.500000 127.931 38.2812
35.000000 127.976 37.7019
35.500000 128.015 37.1308
36.000000 128.050 36.5648
36.500000 128.079 36.0197
37.000000 128.107 35.5093
37.500000 128.138 35.0164
38.200001 128.186 34.2962
38.700001 128.219 33.7589
39.500000 128.265 32.9262
40.000000 128.295 32.4250
40.599998 128.331 31.8257
41.200001 128.363 31.2432
41.799999 128.394 30.6957
42.500000 128.434 30.0694
43.099998 128.464 29.5041
43.700001 128.485 28.9403
44.400002 128.501 28.3656
45.000000 128.522 27.9446
45.500000 128.548 27.5748
46.200001 128.586 26.9570
46.799999 128.605 26.3894
47.500000 128.616 25.8175
48.200001 128.635 25.3359
48.700001 128.656 24.9795
49.400002 128.684 24.4262
50.000000 128.700 23.9546
50.799999 128.718 23.3815
51.500000 128.736 22.8829
52.200001 128.748 22.3889
53.000000 128.761 21.8839
53.799999 128.780 21.3551
54.500000 128.788 20.8661
55.200001 128.790 20.4655
56.000000 128.811 20.0399
57.000000 128.836 19.3477
58.000000 128.839 18.7191
59.000000 128.850 18.1599
60.000000 128.859 17.5771
60.799999 128.864 17.1348
61.500000 128.868 16.7638
62.200001 128.874 16.3925
63.000000 128.880 15.9521
64.000000 128.881 15.4137
65.000000 128.881 14.9002
66.000000 128.879 14.4049
67.000000 128.879 13.9317
68.000000 128.881 13.4526
69.000000 128.884 12.9803
70.000000 128.886 12.5165
71.000000 128.889 12.0831
72.000000 128.892 11.6348
73.000000 128.888 11.2198
74.000000 128.887 10.8432
75.000000 128.885 10.4378
76.199997 128.876 9.9755
77.500000 128.870 9.4691
78.800003 128.858 8.9564
80.000000 128.848 8.5272
81.199997 128.839 8.1146
82.500000 128.834 7.6583
83.800003 128.819 7.1962
85.000000 128.810 6.8417
86.199997 128.802 6.4285
87.500000 128.787 6.0292
88.500000 128.779 5.7186
90.000000 128.761 5.2645
91.199997 128.749 4.9202
92.500000 128.734 4.5279
93.800003 128.716 4.1767
95.000000 128.702 3.8515
96.199997 128.686 3.5571
97.500000 128.674 3.2158
98.800003 128.654 2.8960
100.000000 128.641 2.6073
101.500000 128.619 2.2333
103.000000 128.602 1.8982
104.400002 128.582 1.5450
106.000000 128.556 1.2293
107.500000 128.538 0.9180
109.000000 128.520 0.5913
110.599998 128.493 0.2534
112.000000 128.477 -0.0234
113.800003 128.450 -0.3630
115.000000 128.437 -0.6056
117.199997 128.403 -0.9733
118.000000 128.393 -1.1305
120.599998 128.351 -1.5730
122.000000 128.331 -1.7967
124.099998 128.301 -2.1320
125.000000 128.289 -2.2967
126.500000 128.266 -2.5153
128.000000 128.248 -2.7561
131.500000 128.195 -3.2288
132.000000 128.189 -3.3037
134.000000 128.155 -3.5811
136.000000 128.126 -3.8442
138.000000 128.095 -4.0946
140.000000 128.067 -4.3602
143.000000 128.024 -4.7026
145.000000 127.996 -4.9409
147.500000 127.954 -5.2108
150.000000 127.921 -5.4526
152.500000 127.880 -5.7307
155.000000 127.847 -5.9838
157.500000 127.814 -6.2395
160.000000 127.778 -6.4979
162.500000 127.748 -6.6842
165.000000 127.708 -6.9474
167.500000 127.669 -7.1997
170.000000 127.637 -7.3995
172.500000 127.604 -7.5767
175.000000 127.571 -7.7329
177.500000 127.528 -7.9419
180.000000 127.490 -8.1927
182.500000 127.458 -8.3598
185.000000 127.417 -8.5086
187.500000 127.388 -8.7537
190.000000 127.367 -8.8941
192.500000 127.314 -8.9113
195.000000 127.258 -9.2518
197.500000 127.249 -9.3978
200.000000 127.195 -9.5335
203.000000 127.165 -9.7706
206.000000 127.114 -9.9349
209.000000 127.064 -10.2298
212.000000 127.019 -10.3674
214.000000 126.980 -10.4617
218.000000 126.912 -10.6956
220.000000 126.873 -10.7838
224.000000 126.798 -11.0311
227.000000 126.739 -11.1626
230.000000 126.674 -11.2730
233.000000 126.622 -11.3335
236.000000 126.551 -11.4750
240.000000 126.465 -11.4872
243.000000 126.405 -11.4983
247.000000 126.315 -11.5374
250.000000 126.248 -11.5116
254.000000 126.171 -11.4287
258.000000 126.087 -11.3222
262.000000 126.003 -11.1482
265.000000 125.954 -11.0254
269.000000 125.881 -10.7999
272.000000 125.839 -10.6235
276.000000 125.774 -10.3956
280.000000 125.730 -10.2152
285.000000 125.654 -9.8915
290.000000 125.612 -9.5346
295.000000 125.562 -9.2827
300.000000 125.515 -8.9775
304.000000 125.479 -8.7664
307.000000 125.456 -8.6527
311.000000 125.423 -8.4128
315.000000 125.394 -8.2022
320.000000 125.361 -7.9239
325.000000 125.326 -7.7405
330.000000 125.300 -7.5338
335.000000 125.266 -7.2852
340.000000 125.243 -7.1393
345.000000 125.208 -6.9127
350.000000 125.184 -6.6775
355.000000 125.154 -6.4550
360.000000 125.122 -6.2820
365.000000 125.105 -6.1539
370.000000 125.065 -5.8630
375.000000 125.043 -5.7385
382.000000 125.005 -5.5273
387.000000 124.989 -5.3155
395.000000 124.944 -5.1149
400.000000 124.917 -4.8758
406.000000 124.886 -4.6843
412.000000 124.867 -4.4346
418.000000 124.824 -4.2893
425.000000 124.790 -4.0681
431.000000 124.766 -3.8259
437.000000 124.738 -3.5716
444.000000 124.706 -3.3833
450.000000 124.678 -3.1216
455.000000 124.649 -2.9254
462.000000 124.616 -2.7184
468.000000 124.593 -2.4426
475.000000 124.558 -2.2440
482.000000 124.523 -1.9320
487.000000 124.502 -1.7078
494.000000 124.475 -1.4459
500.000000 124.448 -1.2688
508.000000 124.405 -0.9261
515.000000 124.382 -0.6552
522.000000 124.353 -0.3922
530.000000 124.313 -0.0324
538.000000 124.282 0.2842
545.000000 124.256 0.5560
552.000000 124.225 0.8783
560.000000 124.205 1.2781
570.000000 124.160 1.7344
580.000000 124.121 2.1688
590.000000 124.089 2.5863
600.000000 124.058 3.0309
608.000000 124.032 3.4427
615.000000 124.008 3.7389
622.000000 123.977 4.0923
630.000000 123.962 4.5118
640.000000 123.922 4.9652
650.000000 123.901 5.4877
660.000000 123.877 6.0633
670.000000 123.842 6.5456
680.000000 123.822 7.0775
690.000000 123.805 7.5615
700.000000 123.782 8.1085
710.000000 123.767 8.6774
720.000000 123.748 9.2456
730.000000 123.730 9.8354
740.000000 123.721 10.4356
750.000000 123.710 10.9882
762.000000 123.705 11.6832
775.000000 123.699 12.4246
788.000000 123.689 13.1459
800.000000 123.698 13.8622
812.000000 123.699 14.5553
825.000000 123.694 15.3839
838.000000 123.714 16.1507
850.000000 123.741 16.8231
862.000000 123.757 17.5174
875.000000 123.779 18.2986
885.000000 123.803 18.8342
900.000000 123.849 19.7298
912.000000 123.882 20.4276
925.000000 123.920 21.1009
938.000000 123.952 21.8554
950.000000 124.006 22.4322
962.000000 124.052 23.0865
975.000000 124.105 23.7542
988.000000 124.167 24.2861
1000.000000 124.234 24.9915
1015.000000 124.289 25.5027
1030.000000 124.368 26.1758
1044.000000 124.444 26.7558
1060.000000 124.510 27.3860
1075.000000 124.594 27.9107
1090.000000 124.670 28.4230
1106.000000 124.741 28.9628
1120.000000 124.821 29.4304
1138.000000 124.911 29.8953
1150.000000 124.977 30.2601
1172.000000 125.087 30.8555
1180.000000 125.117 30.9740
1206.000000 125.242 31.6592
1220.000000 125.306 32.0095
1241.000000 125.405 32.4818
1250.000000 125.438 32.7205
1265.000000 125.505 33.0203
1280.000000 125.565 33.3990
1315.000000 125.713 34.1422
1320.000000 125.735 34.3084
1340.000000 125.812 34.7236
1360.000000 125.902 35.1782
1380.000000 125.971 35.6311
1400.000000 126.071 36.1577
1430.000000 126.205 36.8164
1450.000000 126.289 37.3192
1475.000000 126.416 37.9139
1500.000000 126.540 38.5759
1525.000000 126.663 39.1007
1550.000000 126.805 39.6813
1575.000000 126.945 40.2435
1600.000000 127.100 40.7485
1625.000000 127.259 41.2849
1650.000000 127.417 41.7431
1675.000000 127.593 42.1170
1700.000000 127.778 42.5146
1725.000000 127.959 42.8243
1750.000000 128.152 42.9974
1775.000000 128.340 43.1968
1800.000000 128.545 43.2752
1825.000000 128.738 43.2544
1850.000000 128.942 43.1609
1875.000000 129.139 42.9516
1900.000000 129.343 42.6525
1925.000000 129.538 42.2678
1950.000000 129.726 41.7752
1975.000000 129.913 41.1995
2000.000000 130.069 40.5024
2030.000000 130.284 39.6419
2060.000000 130.467 38.6609
2090.000000 130.633 37.5767
2120.000000 130.774 36.4141
2140.000000 130.858 35.6148
2180.000000 131.000 34.0385
2200.000000 131.059 33.1987
2240.000000 131.141 31.6037
2270.000000 131.200 30.4853
2300.000000 131.235 29.4140
2330.000000 131.262 28.3419
2360.000000 131.280 27.3755
2400.000000 131.300 26.1008
2430.000000 131.312 25.1894
2470.000000 131.318 23.9395
2500.000000 131.309 23.0433
2540.000000 131.287 21.9714
2580.000000 131.257 20.8908
2620.000000 131.229 19.9095
2650.000000 131.199 19.2759
2690.000000 131.157 18.4381
2720.000000 131.127 17.9414
2760.000000 131.102 17.2802
2800.000000 131.077 16.5996
2850.000000 131.052 15.7896
2900.000000 131.030 15.0613
2950.000000 131.019 14.2699
3000.000000 131.010 13.4602
3040.000000 131.003 12.8972
3070.000000 131.004 12.3827
3110.000000 131.005 11.7297
3150.000000 131.003 11.0396
3200.000000 131.000 10.1064
3250.000000 130.985 9.1717
3300.000000 130.974 8.1381
3350.000000 130.951 7.1248
3400.000000 130.916 6.0738
3450.000000 130.869 5.0700
3500.000000 130.812 3.9300
3550.000000 130.747 2.8861
3600.000000 130.673 1.7743
3650.000000 130.564 0.8099
3700.000000 130.461 -0.1426
3750.000000 130.337 -1.0413
3820.000000 130.154 -2.2583
3870.000000 130.001 -3.0371
3950.000000 129.759 -4.1437
4000.000000 129.600 -4.6783
4060.000000 129.372 -5.2344
4120.000000 129.151 -5.6226
4180.000000 128.936 -5.8830
4250.000000 128.681 -6.1783
4310.000000 128.464 -6.0875
4370.000000 128.257 -6.0172
4440.000000 128.003 -5.6720
4500.000000 127.804 -5.4357
4550.000000 127.626 -4.8972
4620.000000 127.412 -4.2893
4680.000000 127.230 -3.5406
4750.000000 127.052 -2.5991
4820.000000 126.880 -1.7301
4870.000000 126.751 -0.9625
4940.000000 126.610 0.1958
5000.000000 126.468 1.2768
5080.000000 126.366 2.6033
5150.000000 126.277 3.8733
5220.000000 126.213 5.2160
5300.000000 126.152 6.7491
5380.000000 126.174 8.1381
5450.000000 126.180 9.2458
5520.000000 126.231 10.2738
5600.000000 126.296 11.2802
5700.000000 126.373 12.1502
5800.000000 126.423 12.7093
5900.000000 126.447 12.9465
6000.000000 126.408 13.3058
6080.000000 126.366 13.3636
6150.000000 126.305 13.6069
6220.000000 126.236 13.8661
6300.000000 126.172 14.2869
6400.000000 126.073 14.8509
6500.000000 125.968 15.5477
6600.000000 125.871 16.4240
6700.000000 125.775 17.2520
6800.000000 125.669 18.1052
6900.000000 125.615 19.2120
7000.000000 125.535 20.3801
7100.000000 125.478 21.3848
7200.000000 125.443 22.6989
7300.000000 125.419 23.8990
7400.000000 125.444 25.1869
7500.000000 125.503 26.2427
7620.000000 125.554 27.4641
7750.000000 125.702 28.7023
7880.000000 125.859 29.4590
8000.000000 126.098 29.7125
8120.000000 126.289 29.3185
8250.000000 126.485 28.1878
8380.000000 126.556 25.8962
8500.000000 126.372 23.6261
8620.000000 125.775 21.8988
8750.000000 124.273 33.5834
8850.000000 127.989 35.0559
9000.000000 127.198 20.2911
9120.000000 126.510 18.5714
9250.000000 126.049 18.7569
9380.000000 125.756 19.5942
9500.000000 125.629 20.6079
9620.000000 125.589 21.5797
9750.000000 125.649 22.5399
9880.000000 125.773 23.1068
10000.000000 125.916 23.6308
10150.000000 126.202 23.4077
10300.000000 126.603 23.0605
10440.000000 127.004 21.6079
10600.000000 127.474 18.5647
10750.000000 127.798 14.3957
10900.000000 127.914 10.0457
11060.000000 127.929 5.5337
11200.000000 127.928 1.7987
11380.000000 127.840 -3.8343
11500.000000 127.665 -7.8632
11720.000000 127.064 -14.9366
11800.000000 126.769 -17.2426
12060.000000 125.604 -23.4488
12200.000000 124.877 -26.2453
12410.000000 123.719 -28.5572
12500.000000 123.234 -29.1448
12650.000000 122.392 -29.8853
12800.000000 121.582 -29.8164
13150.000000 119.748 -28.5847
13200.000000 119.582 -27.5989
13400.000000 118.599 -25.9377
13600.000000 117.728 -24.0476
13800.000000 116.980 -21.5191
14000.000000 116.243 -18.0158
14300.000000 115.506 -14.1952
14500.000000 115.044 -11.5587
14750.000000 114.687 -7.2870
15000.000000 114.494 -4.7881
15250.000000 114.520 -2.3474
15500.000000 114.559 -0.9885
15750.000000 114.896 -0.9153
16000.000000 115.142 -2.1745
16250.000000 115.789 -5.2134
16500.000000 116.379 -9.9204
16750.000000 116.919 -16.2728
17000.000000 117.382 -26.4604
17250.000000 117.848 -39.8206
17500.000000 117.614 -56.0876
17750.000000 116.532 -76.1212
18000.000000 114.360 -96.2354
18250.000000 110.912 -113.1118
18500.000000 106.699 -124.9940
18750.000000 102.016 -133.5990
19000.000000 96.240 -135.7354
19250.000000 83.585 -114.4287
19500.000000 82.515 -1.4180
19750.000000 88.422 4.3677
