* Measurement data measured by REW V5.20.13
* Source: C:\Users\marcu\OneDrive\Desktop\audio_db\DUNU SA6 s.Off Foam R.txt
* Format: Comma/Tab/Space delimited data
* Dated: Aug 14, 2023 5:52:16 PM
* REW Settings:
*  C-weighting compensation: Off
*  Target level: 75.0 dB
* Note: ; Measurement imported from C:\Users\marcu\OneDrive\Desktop\audio_db\DUNU SA6 s.Off Foam R.txt Format: Comma/Tab/Space delimited data 54613 values loaded, 0 Hz to 20,000 Hz 
* Measurement: DUNU SA6 s.Off Foam R
* Smoothing: None
* Frequency Step: 1/48 octave
* Start Frequency: 1.000 Hz
*
* Freq(Hz)	SPL(dB)	Phase(degrees)
1.000000	68.493	-94.1864
1.015000	68.389	-95.6020
1.030000	68.281	-97.0205
1.044000	68.177	-98.3474
1.060000	68.055	-99.8676
1.075000	67.935	-101.2966
1.090000	67.811	-102.7297
1.106000	67.675	-104.2597
1.120000	67.557	-105.5814
1.138000	67.408	-107.2561
1.150000	67.309	-108.3597
1.172000	67.127	-110.3624
1.180000	67.061	-111.0856
1.206000	66.843	-113.4258
1.220000	66.723	-114.6836
1.241000	66.537	-116.5746
1.250000	66.455	-117.3884
1.265000	66.315	-118.7520
1.280000	66.169	-120.1274
1.315000	65.803	-123.4007
1.320000	65.748	-123.8774
1.340000	65.517	-125.8118
1.360000	65.270	-127.7960
1.380000	65.005	-129.8376
1.400000	64.720	-131.9445
1.430000	64.253	-135.2440
1.450000	63.912	-137.5476
1.475000	63.445	-140.5197
1.500000	62.886	-143.2954
1.525000	62.242	-145.8706
1.550000	61.529	-148.3259
1.575000	60.765	-150.7417
1.600000	59.967	-153.1987
1.625000	59.153	-155.7774
1.650000	58.339	-158.5582
1.675000	57.544	-161.6218
1.700000	56.785	-165.0487
1.725000	56.080	-168.9194
1.750000	55.445	-173.3144
1.775000	54.898	-178.3143
1.800000	54.456	176.0004
1.825000	54.138	169.5491
1.850000	53.945	162.0958
1.875000	53.847	153.3374
1.900000	53.834	143.4615
1.925000	53.899	132.6743
1.950000	54.033	121.1823
1.975000	54.227	109.1917
2.000000	54.473	96.9090
2.030000	54.826	82.0745
2.060000	55.228	67.4728
2.090000	55.665	53.4604
2.120000	56.121	40.3939
2.140000	56.430	32.3844
2.180000	57.038	18.5246
2.200000	57.329	12.8823
2.240000	57.979	3.6895
2.270000	58.542	-1.7639
2.300000	59.154	-6.1694
2.330000	59.802	-9.6963
2.360000	60.473	-12.5132
2.400000	61.379	-15.4568
2.430000	62.050	-17.2741
2.470000	62.907	-19.4979
2.500000	63.503	-21.2352
2.540000	64.212	-23.9655
2.580000	64.798	-27.4196
2.620000	65.301	-30.8655
2.650000	65.635	-33.3218
2.690000	66.030	-36.4485
2.720000	66.295	-38.6977
2.760000	66.612	-41.5911
2.800000	66.896	-44.3896
2.850000	67.219	-47.7971
2.900000	67.524	-51.1547
2.950000	67.823	-54.5062
3.000000	68.086	-57.7871
3.040000	68.269	-60.3445
3.070000	68.391	-62.2225
3.110000	68.536	-64.6721
3.150000	68.663	-67.0584
3.200000	68.800	-69.9502
3.250000	68.919	-72.7385
3.300000	69.023	-75.4210
3.350000	69.106	-78.0159
3.400000	69.162	-80.5276
3.450000	69.195	-82.9421
3.500000	69.210	-85.2456
3.550000	69.208	-87.4240
3.600000	69.196	-89.4633
3.650000	69.176	-91.3496
3.700000	69.145	-93.0832
3.750000	69.092	-94.6884
3.820000	68.991	-96.7117
3.870000	68.909	-97.9896
3.950000	68.778	-99.7291
4.000000	68.706	-100.6171
4.060000	68.634	-101.4568
4.120000	68.556	-101.9955
4.180000	68.478	-102.2851
4.250000	68.400	-102.3968
4.310000	68.356	-102.3745
4.370000	68.344	-102.3134
4.440000	68.380	-102.1935
4.500000	68.447	-101.9009
4.550000	68.523	-101.5737
4.620000	68.655	-101.0895
4.680000	68.788	-100.7439
4.750000	68.957	-100.5437
4.820000	69.150	-100.5898
4.870000	69.310	-100.7010
4.940000	69.554	-100.9681
5.000000	69.769	-101.3051
5.080000	70.048	-101.9168
5.150000	70.267	-102.6157
5.220000	70.479	-103.5155
5.300000	70.714	-104.7438
5.380000	70.934	-106.1020
5.450000	71.104	-107.3287
5.520000	71.250	-108.5444
5.600000	71.388	-110.0259
5.700000	71.526	-111.9637
5.800000	71.628	-113.8541
5.900000	71.697	-115.5681
6.000000	71.724	-117.1950
6.080000	71.722	-118.4143
6.150000	71.712	-119.3865
6.220000	71.699	-120.2416
6.300000	71.677	-121.0629
6.400000	71.630	-121.8942
6.500000	71.582	-122.5429
6.600000	71.552	-123.0454
6.700000	71.539	-123.3422
6.800000	71.537	-123.4646
6.900000	71.554	-123.5402
7.000000	71.595	-123.6731
7.100000	71.664	-123.7788
7.200000	71.750	-123.9008
7.300000	71.843	-124.1249
7.400000	71.939	-124.5059
7.500000	72.046	-125.0015
7.620000	72.172	-125.7191
7.750000	72.284	-126.6299
7.880000	72.376	-127.7214
8.000000	72.442	-128.7864
8.120000	72.483	-129.8163
8.250000	72.497	-130.9527
8.380000	72.492	-132.0242
8.500000	72.475	-132.8799
8.620000	72.441	-133.6382
8.750000	72.400	-134.3502
8.850000	72.375	-134.8092
9.000000	72.338	-135.3412
9.120000	72.316	-135.7065
9.250000	72.310	-136.0847
9.380000	72.317	-136.4171
9.500000	72.332	-136.7529
9.620000	72.354	-137.1548
9.750000	72.388	-137.6360
9.880000	72.420	-138.1752
10.000000	72.447	-138.7404
10.150000	72.477	-139.5181
10.300000	72.498	-140.3152
10.440000	72.506	-141.0867
10.600000	72.508	-141.9586
10.750000	72.502	-142.7272
10.900000	72.491	-143.4625
11.060000	72.481	-144.1986
11.200000	72.473	-144.7980
11.380000	72.467	-145.5458
11.500000	72.467	-146.0336
11.720000	72.471	-146.9208
11.800000	72.473	-147.2505
12.060000	72.483	-148.3308
12.200000	72.486	-148.9111
12.410000	72.489	-149.7716
12.500000	72.489	-150.1240
12.650000	72.488	-150.6928
12.800000	72.488	-151.2363
13.150000	72.496	-152.3934
13.200000	72.499	-152.5536
13.400000	72.514	-153.1787
13.600000	72.532	-153.8102
13.800000	72.554	-154.4622
14.000000	72.572	-155.1279
14.300000	72.592	-156.1385
14.500000	72.596	-156.7856
14.750000	72.596	-157.5348
15.000000	72.593	-158.2085
15.250000	72.595	-158.8200
15.500000	72.601	-159.4130
15.750000	72.611	-160.0114
16.000000	72.620	-160.6469
16.250000	72.622	-161.3024
16.500000	72.616	-161.9609
16.750000	72.601	-162.5898
17.000000	72.584	-163.1708
17.250000	72.567	-163.7101
17.500000	72.553	-164.2208
17.750000	72.543	-164.7407
18.000000	72.537	-165.2816
18.250000	72.530	-165.8564
18.500000	72.520	-166.4517
18.750000	72.507	-167.0527
19.000000	72.492	-167.6460
19.250000	72.476	-168.2235
19.500000	72.462	-168.7928
19.750000	72.451	-169.3595
20.000000	72.441	-169.9338
20.299999	72.428	-170.6266
20.600000	72.415	-171.3104
20.900000	72.401	-171.9678
21.200001	72.390	-172.5894
21.400000	72.385	-172.9901
21.799999	72.381	-173.7798
22.000000	72.381	-174.1769
22.400000	72.381	-174.9769
22.700001	72.377	-175.5641
23.000000	72.372	-176.1205
23.299999	72.368	-176.6426
23.600000	72.365	-177.1427
24.000000	72.365	-177.8013
24.299999	72.365	-178.3022
24.700001	72.360	-178.9742
25.000000	72.354	-179.4688
25.400000	72.343	179.8909
25.799999	72.333	179.2573
26.200001	72.321	178.6113
26.500000	72.310	178.1209
26.900000	72.291	177.4767
27.200001	72.276	177.0112
27.600000	72.260	176.4102
28.000000	72.249	175.8015
28.500000	72.239	174.9907
29.000000	72.226	174.1379
29.500000	72.204	173.3016
30.000000	72.180	172.5266
30.400000	72.164	171.9525
30.700001	72.154	171.5409
31.100000	72.145	171.0011
31.500000	72.140	170.4539
32.000000	72.131	169.7452
32.500000	72.113	169.0322
33.000000	72.087	168.3693
33.500000	72.057	167.7820
34.000000	72.031	167.2394
34.500000	72.010	166.6962
35.000000	71.988	166.1364
35.500000	71.966	165.5637
36.000000	71.942	164.9755
36.500000	71.916	164.3699
37.000000	71.886	163.7622
37.500000	71.854	163.1714
38.200001	71.811	162.3746
38.700001	71.782	161.8154
39.500000	71.742	160.9249
40.000000	71.719	160.3615
40.599998	71.690	159.6797
41.200001	71.657	159.0222
41.799999	71.625	158.4023
42.500000	71.594	157.6948
43.099998	71.568	157.0833
43.700001	71.541	156.4781
44.400002	71.510	155.7836
45.000000	71.483	155.1894
45.500000	71.461	154.6942
46.200001	71.426	154.0091
46.799999	71.394	153.4420
47.500000	71.358	152.8080
48.200001	71.325	152.1788
48.700001	71.300	151.7239
49.400002	71.262	151.0954
50.000000	71.229	150.5759
50.799999	71.187	149.9018
51.500000	71.151	149.3174
52.200001	71.114	148.7316
53.000000	71.071	148.0690
53.799999	71.025	147.4294
54.500000	70.985	146.8797
55.200001	70.942	146.3406
56.000000	70.893	145.7473
57.000000	70.830	145.0242
58.000000	70.768	144.3147
59.000000	70.707	143.6085
60.000000	70.646	142.9128
60.799999	70.601	142.3646
61.500000	70.562	141.8806
62.200001	70.523	141.3965
63.000000	70.476	140.8616
64.000000	70.419	140.2278
65.000000	70.363	139.6136
66.000000	70.305	139.0153
67.000000	70.249	138.4118
68.000000	70.193	137.8077
69.000000	70.138	137.1952
70.000000	70.084	136.5762
71.000000	70.031	135.9633
72.000000	69.979	135.3628
73.000000	69.928	134.7837
74.000000	69.877	134.2289
75.000000	69.826	133.6863
76.199997	69.761	133.0527
77.500000	69.690	132.4060
78.800003	69.618	131.7769
80.000000	69.554	131.2077
81.199997	69.488	130.6343
82.500000	69.419	130.0331
83.800003	69.350	129.4352
85.000000	69.287	128.9176
86.199997	69.225	128.4037
87.500000	69.155	127.8605
88.500000	69.102	127.4514
90.000000	69.024	126.8370
91.199997	68.963	126.3415
92.500000	68.900	125.7871
93.800003	68.839	125.2429
95.000000	68.785	124.7537
96.199997	68.731	124.2863
97.500000	68.674	123.8093
98.800003	68.618	123.3363
100.000000	68.565	122.9061
101.500000	68.499	122.3685
103.000000	68.435	121.8326
104.400002	68.377	121.3453
106.000000	68.314	120.8093
107.500000	68.255	120.3158
109.000000	68.195	119.8354
110.599998	68.131	119.3420
112.000000	68.075	118.9011
113.800003	68.004	118.3397
115.000000	67.956	117.9647
117.199997	67.869	117.3098
118.000000	67.838	117.0791
120.599998	67.736	116.3760
122.000000	67.683	115.9952
124.099998	67.602	115.4307
125.000000	67.567	115.2006
126.500000	67.509	114.8328
128.000000	67.453	114.4674
131.500000	67.323	113.6067
132.000000	67.305	113.4855
134.000000	67.234	112.9985
136.000000	67.164	112.5366
138.000000	67.095	112.0771
140.000000	67.028	111.6407
143.000000	66.939	110.9799
145.000000	66.884	110.5470
147.500000	66.814	110.0099
150.000000	66.746	109.4854
152.500000	66.681	108.9670
155.000000	66.620	108.4574
157.500000	66.561	107.9645
160.000000	66.505	107.4819
162.500000	66.447	107.0221
165.000000	66.389	106.5825
167.500000	66.334	106.1617
170.000000	66.279	105.7427
172.500000	66.225	105.3327
175.000000	66.172	104.9232
177.500000	66.121	104.5251
180.000000	66.077	104.1254
182.500000	66.033	103.7325
185.000000	65.992	103.3594
187.500000	65.952	102.9742
190.000000	65.914	102.5950
192.500000	65.880	102.2139
195.000000	65.848	101.8377
197.500000	65.818	101.4677
200.000000	65.786	101.1162
203.000000	65.751	100.7196
206.000000	65.715	100.3201
209.000000	65.679	99.9186
212.000000	65.644	99.5272
214.000000	65.621	99.2716
218.000000	65.573	98.7772
220.000000	65.548	98.5310
224.000000	65.502	98.0673
227.000000	65.470	97.7335
230.000000	65.437	97.4177
233.000000	65.403	97.0933
236.000000	65.373	96.7626
240.000000	65.336	96.3197
243.000000	65.309	95.9861
247.000000	65.277	95.5524
250.000000	65.251	95.2377
254.000000	65.221	94.8466
258.000000	65.197	94.4659
262.000000	65.177	94.0734
265.000000	65.162	93.7794
269.000000	65.141	93.4083
272.000000	65.128	93.1388
276.000000	65.115	92.7645
280.000000	65.105	92.3995
285.000000	65.096	91.9715
290.000000	65.095	91.5458
295.000000	65.097	91.1263
300.000000	65.101	90.7110
304.000000	65.109	90.3672
307.000000	65.117	90.0967
311.000000	65.130	89.7471
315.000000	65.144	89.4097
320.000000	65.162	88.9977
325.000000	65.173	88.6048
330.000000	65.184	88.2426
335.000000	65.192	87.8842
340.000000	65.198	87.5213
345.000000	65.204	87.1732
350.000000	65.211	86.8547
355.000000	65.219	86.5302
360.000000	65.232	86.1736
365.000000	65.250	85.8126
370.000000	65.273	85.4641
375.000000	65.296	85.1280
382.000000	65.330	84.6400
387.000000	65.358	84.3104
395.000000	65.404	83.8141
400.000000	65.436	83.5111
406.000000	65.477	83.1190
412.000000	65.518	82.7208
418.000000	65.563	82.3214
425.000000	65.619	81.8652
431.000000	65.662	81.4904
437.000000	65.705	81.1304
444.000000	65.749	80.7002
450.000000	65.784	80.3438
455.000000	65.814	80.0596
462.000000	65.858	79.6686
468.000000	65.896	79.3215
475.000000	65.943	78.9070
482.000000	65.992	78.4987
487.000000	66.030	78.1986
494.000000	66.081	77.7759
500.000000	66.125	77.4229
508.000000	66.180	76.9487
515.000000	66.228	76.5288
522.000000	66.270	76.1367
530.000000	66.317	75.7089
538.000000	66.360	75.2898
545.000000	66.395	74.9206
552.000000	66.435	74.5453
560.000000	66.482	74.1291
570.000000	66.547	73.5941
580.000000	66.616	73.0516
590.000000	66.686	72.5172
600.000000	66.759	71.9921
608.000000	66.815	71.5826
615.000000	66.863	71.2552
622.000000	66.911	70.9246
630.000000	66.964	70.5334
640.000000	67.027	70.0547
650.000000	67.087	69.6041
660.000000	67.149	69.1688
670.000000	67.210	68.7226
680.000000	67.269	68.2899
690.000000	67.326	67.8687
700.000000	67.385	67.4706
710.000000	67.443	67.0932
720.000000	67.499	66.7092
730.000000	67.554	66.3157
740.000000	67.609	65.9412
750.000000	67.662	65.5963
762.000000	67.724	65.2031
775.000000	67.786	64.7791
788.000000	67.850	64.3871
800.000000	67.908	64.0345
812.000000	67.968	63.6930
825.000000	68.033	63.3392
838.000000	68.099	62.9899
850.000000	68.163	62.6763
862.000000	68.231	62.3696
875.000000	68.307	62.0453
885.000000	68.366	61.8011
900.000000	68.459	61.4338
912.000000	68.538	61.1274
925.000000	68.626	60.7946
938.000000	68.717	60.4558
950.000000	68.804	60.1318
962.000000	68.894	59.7927
975.000000	68.990	59.4100
988.000000	69.089	59.0104
1000.000000	69.179	58.6387
1015.000000	69.288	58.1520
1030.000000	69.395	57.6360
1044.000000	69.493	57.1335
1060.000000	69.601	56.5278
1075.000000	69.696	55.9432
1090.000000	69.785	55.3425
1106.000000	69.875	54.6862
1120.000000	69.949	54.0881
1138.000000	70.040	53.2982
1150.000000	70.097	52.7686
1172.000000	70.193	51.7847
1180.000000	70.226	51.4224
1206.000000	70.323	50.2571
1220.000000	70.371	49.6357
1241.000000	70.436	48.7194
1250.000000	70.462	48.3314
1265.000000	70.502	47.6883
1280.000000	70.540	47.0661
1315.000000	70.615	45.6628
1320.000000	70.625	45.4683
1340.000000	70.659	44.7090
1360.000000	70.691	43.9869
1380.000000	70.720	43.2908
1400.000000	70.748	42.6198
1430.000000	70.789	41.6630
1450.000000	70.814	41.0551
1475.000000	70.846	40.3345
1500.000000	70.875	39.6440
1525.000000	70.902	38.9837
1550.000000	70.931	38.3569
1575.000000	70.959	37.7408
1600.000000	70.990	37.1360
1625.000000	71.023	36.5440
1650.000000	71.057	35.9711
1675.000000	71.091	35.4095
1700.000000	71.128	34.8531
1725.000000	71.167	34.2986
1750.000000	71.207	33.7509
1775.000000	71.249	33.2073
1800.000000	71.292	32.6579
1825.000000	71.337	32.0988
1850.000000	71.384	31.5384
1875.000000	71.430	30.9725
1900.000000	71.476	30.3950
1925.000000	71.523	29.7996
1950.000000	71.569	29.1828
1975.000000	71.613	28.5541
2000.000000	71.655	27.9106
2030.000000	71.705	27.0999
2060.000000	71.754	26.2514
2090.000000	71.803	25.3704
2120.000000	71.852	24.4501
2140.000000	71.883	23.8177
2180.000000	71.942	22.4830
2200.000000	71.966	21.8083
2240.000000	72.008	20.4553
2270.000000	72.031	19.3984
2300.000000	72.049	18.3273
2330.000000	72.058	17.2682
2360.000000	72.057	16.1935
2400.000000	72.035	14.7841
2430.000000	71.999	13.7484
2470.000000	71.935	12.4059
2500.000000	71.880	11.4272
2540.000000	71.803	10.1489
2580.000000	71.723	8.9431
2620.000000	71.641	7.8317
2650.000000	71.579	7.0573
2690.000000	71.500	6.0959
2720.000000	71.442	5.4475
2760.000000	71.368	4.6797
2800.000000	71.296	4.0236
2850.000000	71.207	3.3683
2900.000000	71.118	2.8679
2950.000000	71.033	2.5142
3000.000000	70.949	2.2816
3040.000000	70.886	2.1560
3070.000000	70.842	2.0727
3110.000000	70.789	1.9623
3150.000000	70.740	1.8442
3200.000000	70.683	1.6987
3250.000000	70.636	1.5560
3300.000000	70.604	1.4552
3350.000000	70.590	1.4261
3400.000000	70.590	1.4784
3450.000000	70.603	1.6274
3500.000000	70.625	1.8573
3550.000000	70.660	2.1373
3600.000000	70.714	2.4451
3650.000000	70.792	2.7436
3700.000000	70.893	3.0035
3750.000000	71.016	3.1959
3820.000000	71.225	3.2908
3870.000000	71.399	3.1866
3950.000000	71.716	2.6387
4000.000000	71.938	1.9827
4060.000000	72.215	0.8552
4120.000000	72.486	-0.6859
4180.000000	72.741	-2.6964
4250.000000	73.002	-5.6705
4310.000000	73.178	-8.7892
4370.000000	73.290	-12.4022
4440.000000	73.320	-17.1434
4500.000000	73.241	-21.5062
4550.000000	73.091	-25.1875
4620.000000	72.751	-30.1305
4680.000000	72.339	-33.9042
4750.000000	71.739	-37.4999
4820.000000	71.046	-40.0515
4870.000000	70.516	-41.2017
4940.000000	69.751	-41.9197
5000.000000	69.096	-41.7517
5080.000000	68.246	-40.5036
5150.000000	67.546	-38.5430
5220.000000	66.905	-35.8323
5300.000000	66.262	-31.9419
5380.000000	65.730	-27.3408
5450.000000	65.370	-22.8206
5520.000000	65.121	-17.9378
5600.000000	64.983	-12.0771
5700.000000	65.061	-4.6952
5800.000000	65.380	1.7675
5900.000000	65.703	7.8044
6000.000000	66.283	14.7529
6080.000000	67.095	19.6569
6150.000000	67.934	22.6127
6220.000000	68.828	24.3636
6300.000000	69.873	24.8422
6400.000000	71.124	23.0286
6500.000000	72.163	18.5946
6600.000000	72.855	12.2008
6700.000000	73.157	5.0656
6800.000000	73.133	-1.4951
6900.000000	72.899	-6.7006
7000.000000	72.572	-10.4082
7100.000000	72.239	-12.8768
7200.000000	71.949	-14.5272
7300.000000	71.710	-15.7366
7400.000000	71.516	-16.7446
7500.000000	71.356	-17.6941
7620.000000	71.198	-18.8849
7750.000000	71.047	-20.4390
7880.000000	70.874	-22.3353
8000.000000	70.657	-24.2534
8120.000000	70.369	-26.0970
8250.000000	69.984	-27.7849
8380.000000	69.545	-28.9553
8500.000000	69.119	-29.5085
8620.000000	68.700	-29.5458
8750.000000	68.276	-29.0703
8850.000000	67.987	-28.4163
9000.000000	67.625	-27.1202
9120.000000	67.412	-25.9509
9250.000000	67.264	-24.7162
9380.000000	67.196	-23.6963
9500.000000	67.204	-23.0762
9620.000000	67.281	-23.0558
9750.000000	67.405	-24.1573
9880.000000	67.473	-26.7792
10000.000000	67.353	-30.5289
10150.000000	66.770	-35.8386
10300.000000	65.684	-39.3808
10440.000000	64.441	-39.5179
10600.000000	63.105	-36.0839
10750.000000	62.143	-30.7242
10900.000000	61.506	-24.5323
11060.000000	61.137	-17.8953
11200.000000	61.015	-12.4614
11380.000000	61.060	-6.2591
11500.000000	61.183	-2.7022
11720.000000	61.518	2.5011
11800.000000	61.661	3.9526
12060.000000	62.118	7.0378
12200.000000	62.314	7.7995
12410.000000	62.485	8.0782
12500.000000	62.504	7.9913
12650.000000	62.452	7.7648
12800.000000	62.301	7.6559
13150.000000	61.686	8.9547
13200.000000	61.586	9.3680
13400.000000	61.190	11.5801
13600.000000	60.847	14.5668
13800.000000	60.611	18.0999
14000.000000	60.507	21.9150
14300.000000	60.652	27.6133
14500.000000	60.973	30.8171
14750.000000	61.601	33.1988
15000.000000	62.390	32.7500
15250.000000	63.074	28.5289
15500.000000	63.295	21.4680
15750.000000	62.957	14.5267
16000.000000	62.422	8.9062
16250.000000	61.701	2.0344
16500.000000	60.213	-3.5512
16750.000000	58.426	-3.0841
17000.000000	57.029	1.2318
17250.000000	56.051	6.9469
17500.000000	55.414	13.0400
17750.000000	55.052	19.0948
18000.000000	54.938	24.7808
18250.000000	55.042	29.6918
18500.000000	55.318	33.3835
18750.000000	55.685	35.5217
19000.000000	56.065	35.8259
19250.000000	56.349	34.2066
19500.000000	56.408	30.8647
19750.000000	56.168	26.4867
