* Measurement data measured by REW V5.20.13
* Source: C:\Users\marcu\OneDrive\Desktop\audio_db\DUNU Kima Foam L.txt
* Format: Comma/Tab/Space delimited data
* Dated: Jul 4, 2023 9:04:08 AM
* REW Settings:
*  C-weighting compensation: Off
*  Target level: 75.0 dB
* Note: ; Measurement imported from C:\Users\marcu\OneDrive\Desktop\audio_db\DUNU Kima Foam L.txt Format: Comma/Tab/Space delimited data 54613 values loaded, 0 Hz to 20,000 Hz 
* Measurement: DUNU Kima Foam L
* Smoothing: None
* Frequency Step: 1/48 octave
* Start Frequency: 1.000 Hz
*
* Freq(Hz)	SPL(dB)	Phase(degrees)
1.000000	59.393	121.8724
1.015000	59.228	120.9280
1.030000	59.057	119.9726
1.044000	58.893	119.0700
1.060000	58.700	118.0249
1.075000	58.512	117.0310
1.090000	58.318	116.0226
1.106000	58.105	114.9397
1.120000	57.916	114.0380
1.138000	57.670	112.9456
1.150000	57.503	112.2519
1.172000	57.193	111.0343
1.180000	57.078	110.6044
1.206000	56.697	109.2314
1.220000	56.487	108.4954
1.241000	56.164	107.3752
1.250000	56.022	106.8837
1.265000	55.782	106.0421
1.280000	55.537	105.1644
1.315000	54.941	102.9240
1.320000	54.853	102.5769
1.340000	54.493	101.1074
1.360000	54.120	99.4916
1.380000	53.735	97.7076
1.400000	53.335	95.7334
1.430000	52.706	92.3680
1.450000	52.268	89.8229
1.475000	51.688	86.2665
1.500000	51.019	82.3021
1.525000	50.263	77.9692
1.550000	49.439	73.3066
1.575000	48.567	68.3531
1.600000	47.666	63.1478
1.625000	46.755	57.7295
1.650000	45.853	52.1370
1.675000	44.980	46.4093
1.700000	44.154	40.5852
1.725000	43.395	34.7037
1.750000	42.723	28.8037
1.775000	42.156	22.9239
1.800000	41.713	17.1034
1.825000	41.415	11.3809
1.850000	41.275	5.6363
1.875000	41.286	-0.4513
1.900000	41.429	-6.8218
1.925000	41.685	-13.3985
1.950000	42.036	-20.1050
1.975000	42.462	-26.8645
2.000000	42.947	-33.6004
2.030000	43.578	-41.5446
2.060000	44.234	-49.2121
2.090000	44.882	-56.4705
2.120000	45.491	-63.1875
2.140000	45.858	-67.2994
2.180000	46.460	-74.4677
2.200000	46.676	-77.4467
2.240000	47.029	-82.3474
2.270000	47.262	-85.2417
2.300000	47.468	-87.5443
2.330000	47.649	-89.3255
2.360000	47.806	-90.6556
2.400000	47.983	-91.8487
2.430000	48.092	-92.3992
2.470000	48.209	-92.8079
2.500000	48.277	-92.9614
2.540000	48.345	-93.0956
2.580000	48.383	-93.2456
2.620000	48.342	-93.0467
2.650000	48.264	-92.6253
2.690000	48.115	-91.7360
2.720000	47.984	-90.8479
2.760000	47.799	-89.4044
2.800000	47.627	-87.7055
2.850000	47.465	-85.2901
2.900000	47.403	-82.6316
2.950000	47.482	-79.7426
3.000000	47.661	-76.1095
3.040000	47.859	-72.7418
3.070000	48.035	-70.0458
3.110000	48.301	-66.3448
3.150000	48.599	-62.6605
3.200000	49.005	-58.3078
3.250000	49.437	-54.5104
3.300000	49.884	-51.5605
3.350000	50.382	-49.3681
3.400000	50.946	-47.6804
3.450000	51.551	-46.4214
3.500000	52.174	-45.5150
3.550000	52.789	-44.8853
3.600000	53.373	-44.4561
3.650000	53.901	-44.1513
3.700000	54.367	-44.0004
3.750000	54.803	-44.1792
3.820000	55.368	-44.8603
3.870000	55.740	-45.5538
3.950000	56.283	-46.8166
4.000000	56.593	-47.5861
4.060000	56.932	-48.4179
4.120000	57.229	-49.3361
4.180000	57.488	-50.3297
4.250000	57.751	-51.5175
4.310000	57.950	-52.5030
4.370000	58.131	-53.4057
4.440000	58.322	-54.3280
4.500000	58.454	-55.0754
4.550000	58.545	-55.6628
4.620000	58.654	-56.4130
4.680000	58.737	-56.9726
4.750000	58.832	-57.5068
4.820000	58.922	-57.8922
4.870000	58.976	-58.0808
4.940000	59.042	-58.2463
5.000000	59.097	-58.3168
5.080000	59.179	-58.3419
5.150000	59.267	-58.3231
5.220000	59.363	-58.1993
5.300000	59.482	-57.9583
5.380000	59.611	-57.6904
5.450000	59.733	-57.4992
5.520000	59.867	-57.3961
5.600000	60.037	-57.3125
5.700000	60.268	-57.2685
5.800000	60.505	-57.3568
5.900000	60.735	-57.6430
6.000000	60.969	-58.1249
6.080000	61.155	-58.6206
6.150000	61.311	-59.1152
6.220000	61.458	-59.6508
6.300000	61.613	-60.3321
6.400000	61.793	-61.3050
6.500000	61.958	-62.3425
6.600000	62.106	-63.3696
6.700000	62.235	-64.4038
6.800000	62.346	-65.4568
6.900000	62.446	-66.4794
7.000000	62.541	-67.4287
7.100000	62.623	-68.3228
7.200000	62.699	-69.1684
7.300000	62.777	-69.9637
7.400000	62.860	-70.6986
7.500000	62.943	-71.3695
7.620000	63.048	-72.1333
7.750000	63.175	-72.9570
7.880000	63.316	-73.7489
8.000000	63.453	-74.4898
8.120000	63.597	-75.2824
8.250000	63.761	-76.1830
8.380000	63.928	-77.1243
8.500000	64.079	-78.0364
8.620000	64.229	-78.9941
8.750000	64.387	-80.0477
8.850000	64.503	-80.8527
9.000000	64.670	-82.0737
9.120000	64.799	-83.0292
9.250000	64.933	-84.0177
9.380000	65.061	-84.9712
9.500000	65.178	-85.8112
9.620000	65.296	-86.6042
9.750000	65.423	-87.4155
9.880000	65.543	-88.1916
10.000000	65.644	-88.8777
10.150000	65.759	-89.6952
10.300000	65.871	-90.4947
10.440000	65.971	-91.2240
10.600000	66.082	-92.0417
10.750000	66.185	-92.8015
10.900000	66.285	-93.5500
11.060000	66.387	-94.3294
11.200000	66.472	-94.9968
11.380000	66.576	-95.8260
11.500000	66.642	-96.3580
11.720000	66.757	-97.2958
11.800000	66.797	-97.6246
12.060000	66.920	-98.6528
12.200000	66.983	-99.1900
12.410000	67.074	-99.9753
12.500000	67.117	-100.3084
12.650000	67.196	-100.8578
12.800000	67.275	-101.4005
13.150000	67.446	-102.6423
13.200000	67.468	-102.8163
13.400000	67.556	-103.5029
13.600000	67.640	-104.1785
13.800000	67.720	-104.8428
14.000000	67.797	-105.5066
14.300000	67.907	-106.5076
14.500000	67.977	-107.1883
14.750000	68.060	-108.0524
15.000000	68.138	-108.9293
15.250000	68.209	-109.8070
15.500000	68.277	-110.6766
15.750000	68.343	-111.5346
16.000000	68.411	-112.3801
16.250000	68.486	-113.2218
16.500000	68.564	-114.0640
16.750000	68.643	-114.9125
17.000000	68.721	-115.7637
17.250000	68.798	-116.6121
17.500000	68.872	-117.4499
17.750000	68.945	-118.2669
18.000000	69.017	-119.0607
18.250000	69.088	-119.8288
18.500000	69.159	-120.5738
18.750000	69.230	-121.2972
19.000000	69.299	-122.0003
19.250000	69.367	-122.6831
19.500000	69.433	-123.3447
19.750000	69.497	-123.9849
20.000000	69.559	-124.6045
20.299999	69.633	-125.3257
20.600000	69.705	-126.0279
20.900000	69.774	-126.7163
21.200001	69.837	-127.3938
21.400000	69.877	-127.8393
21.799999	69.952	-128.7155
22.000000	69.986	-129.1466
22.400000	70.051	-129.9967
22.700001	70.095	-130.6272
23.000000	70.136	-131.2539
23.299999	70.176	-131.8773
23.600000	70.215	-132.4977
24.000000	70.264	-133.3213
24.299999	70.299	-133.9384
24.700001	70.346	-134.7627
25.000000	70.381	-135.3811
25.400000	70.426	-136.2004
25.799999	70.471	-137.0056
26.200001	70.515	-137.7912
26.500000	70.548	-138.3669
26.900000	70.592	-139.1173
27.200001	70.625	-139.6671
27.600000	70.668	-140.3814
28.000000	70.711	-141.0742
28.500000	70.761	-141.9139
29.000000	70.807	-142.7268
29.500000	70.848	-143.5087
30.000000	70.885	-144.2559
30.400000	70.913	-144.8355
30.700001	70.934	-145.2668
31.100000	70.959	-145.8450
31.500000	70.982	-146.4269
32.000000	71.006	-147.1492
32.500000	71.026	-147.8530
33.000000	71.047	-148.5394
33.500000	71.069	-149.2220
34.000000	71.090	-149.9102
34.500000	71.110	-150.5979
35.000000	71.126	-151.2694
35.500000	71.142	-151.9117
36.000000	71.159	-152.5249
36.500000	71.176	-153.1199
37.000000	71.193	-153.7072
37.500000	71.210	-154.2886
38.200001	71.228	-155.0833
38.700001	71.238	-155.6325
39.500000	71.250	-156.4828
40.000000	71.258	-157.0039
40.599998	71.266	-157.6260
41.200001	71.273	-158.2425
41.799999	71.278	-158.8446
42.500000	71.285	-159.5305
43.099998	71.291	-160.1145
43.700001	71.295	-160.6903
44.400002	71.299	-161.3393
45.000000	71.303	-161.8810
45.500000	71.304	-162.3270
46.200001	71.305	-162.9325
46.799999	71.306	-163.4300
47.500000	71.307	-164.0066
48.200001	71.306	-164.5894
48.700001	71.303	-164.9964
49.400002	71.296	-165.5409
50.000000	71.292	-165.9938
50.799999	71.288	-166.5912
51.500000	71.283	-167.1047
52.200001	71.278	-167.6108
53.000000	71.271	-168.1814
53.799999	71.261	-168.7353
54.500000	71.253	-169.2070
55.200001	71.244	-169.6694
56.000000	71.233	-170.1886
57.000000	71.217	-170.8240
58.000000	71.201	-171.4234
59.000000	71.187	-172.0119
60.000000	71.171	-172.6025
60.799999	71.155	-173.0547
61.500000	71.141	-173.4385
62.200001	71.128	-173.8151
63.000000	71.112	-174.2446
64.000000	71.087	-174.7759
65.000000	71.063	-175.2746
66.000000	71.041	-175.7764
67.000000	71.015	-176.2691
68.000000	70.991	-176.7262
69.000000	70.966	-177.1783
70.000000	70.940	-177.6151
71.000000	70.913	-178.0482
72.000000	70.883	-178.4736
73.000000	70.856	-178.8772
74.000000	70.827	-179.2844
75.000000	70.798	-179.6776
76.199997	70.765	179.8735
77.500000	70.728	179.3885
78.800003	70.689	178.9315
80.000000	70.654	178.5168
81.199997	70.618	178.1175
82.500000	70.580	177.6921
83.800003	70.541	177.2763
85.000000	70.505	176.9156
86.199997	70.470	176.5641
87.500000	70.432	176.1868
88.500000	70.402	175.9092
90.000000	70.356	175.5052
91.199997	70.320	175.1969
92.500000	70.282	174.8672
93.800003	70.241	174.5399
95.000000	70.205	174.2580
96.199997	70.170	173.9808
97.500000	70.130	173.6818
98.800003	70.090	173.4171
100.000000	70.055	173.1706
101.500000	70.009	172.8663
103.000000	69.962	172.5922
104.400002	69.921	172.3324
106.000000	69.874	172.0489
107.500000	69.831	171.7906
109.000000	69.787	171.5323
110.599998	69.737	171.2849
112.000000	69.696	171.0843
113.800003	69.642	170.8198
115.000000	69.606	170.6579
117.199997	69.545	170.3706
118.000000	69.522	170.2625
120.599998	69.444	169.9338
122.000000	69.405	169.7738
124.099998	69.344	169.5535
125.000000	69.321	169.4653
126.500000	69.285	169.3167
128.000000	69.250	169.1766
131.500000	69.166	168.8461
132.000000	69.154	168.8079
134.000000	69.107	168.6580
136.000000	69.061	168.5109
138.000000	69.015	168.3530
140.000000	68.970	168.2161
143.000000	68.901	168.0353
145.000000	68.859	167.9515
147.500000	68.803	167.8353
150.000000	68.748	167.7321
152.500000	68.695	167.6108
155.000000	68.642	167.5153
157.500000	68.590	167.4511
160.000000	68.534	167.4116
162.500000	68.473	167.3599
165.000000	68.408	167.2914
167.500000	68.345	167.2652
170.000000	68.285	167.2545
172.500000	68.225	167.2212
175.000000	68.162	167.2144
177.500000	68.104	167.2107
180.000000	68.045	167.2109
182.500000	67.988	167.2297
185.000000	67.934	167.2405
187.500000	67.878	167.2664
190.000000	67.823	167.3167
192.500000	67.768	167.3526
195.000000	67.714	167.4064
197.500000	67.662	167.4526
200.000000	67.610	167.5123
203.000000	67.556	167.5860
206.000000	67.502	167.6602
209.000000	67.451	167.7401
212.000000	67.400	167.8375
214.000000	67.369	167.9192
218.000000	67.304	168.0632
220.000000	67.271	168.1334
224.000000	67.210	168.2946
227.000000	67.167	168.4116
230.000000	67.120	168.5178
233.000000	67.074	168.6415
236.000000	67.032	168.7835
240.000000	66.976	168.9887
243.000000	66.935	169.1352
247.000000	66.881	169.3278
250.000000	66.843	169.4636
254.000000	66.794	169.6693
258.000000	66.747	169.8903
262.000000	66.701	170.1068
265.000000	66.668	170.2743
269.000000	66.623	170.4952
272.000000	66.589	170.6683
276.000000	66.549	170.8881
280.000000	66.514	171.1062
285.000000	66.468	171.3959
290.000000	66.420	171.6969
295.000000	66.375	171.9762
300.000000	66.332	172.2645
304.000000	66.301	172.5022
307.000000	66.276	172.6888
311.000000	66.246	172.9200
315.000000	66.212	173.1453
320.000000	66.172	173.4238
325.000000	66.136	173.7174
330.000000	66.098	174.0169
335.000000	66.060	174.3155
340.000000	66.024	174.6159
345.000000	65.990	174.9190
350.000000	65.955	175.2251
355.000000	65.922	175.5418
360.000000	65.889	175.8446
365.000000	65.857	176.1765
370.000000	65.824	176.5079
375.000000	65.796	176.8139
382.000000	65.760	177.2609
387.000000	65.730	177.5925
395.000000	65.690	178.1098
400.000000	65.665	178.4393
406.000000	65.636	178.8344
412.000000	65.608	179.2302
418.000000	65.584	179.6262
425.000000	65.557	-179.9056
431.000000	65.536	-179.5055
437.000000	65.513	-179.1037
444.000000	65.492	-178.6201
450.000000	65.472	-178.2083
455.000000	65.454	-177.8889
462.000000	65.433	-177.4198
468.000000	65.419	-177.0109
475.000000	65.401	-176.5236
482.000000	65.384	-176.0554
487.000000	65.374	-175.7213
494.000000	65.360	-175.2629
500.000000	65.351	-174.8573
508.000000	65.339	-174.3185
515.000000	65.331	-173.8557
522.000000	65.319	-173.3901
530.000000	65.311	-172.8655
538.000000	65.308	-172.3292
545.000000	65.304	-171.8426
552.000000	65.297	-171.3752
560.000000	65.294	-170.8469
570.000000	65.293	-170.1921
580.000000	65.291	-169.5062
590.000000	65.293	-168.8210
600.000000	65.293	-168.1697
608.000000	65.298	-167.6331
615.000000	65.303	-167.1518
622.000000	65.308	-166.6770
630.000000	65.315	-166.1393
640.000000	65.329	-165.4683
650.000000	65.342	-164.7894
660.000000	65.356	-164.1237
670.000000	65.374	-163.4507
680.000000	65.391	-162.7731
690.000000	65.409	-162.0847
700.000000	65.433	-161.4038
710.000000	65.460	-160.7296
720.000000	65.488	-160.0482
730.000000	65.513	-159.3652
740.000000	65.543	-158.6683
750.000000	65.576	-157.9632
762.000000	65.619	-157.1548
775.000000	65.669	-156.2634
788.000000	65.724	-155.3739
800.000000	65.776	-154.5620
812.000000	65.827	-153.7550
825.000000	65.886	-152.8725
838.000000	65.948	-151.9894
850.000000	66.008	-151.1818
862.000000	66.076	-150.4078
875.000000	66.151	-149.5776
885.000000	66.212	-148.9515
900.000000	66.312	-148.0311
912.000000	66.395	-147.3170
925.000000	66.489	-146.5654
938.000000	66.587	-145.8405
950.000000	66.681	-145.2062
962.000000	66.781	-144.5872
975.000000	66.891	-143.9542
988.000000	67.005	-143.3626
1000.000000	67.115	-142.8451
1015.000000	67.262	-142.2329
1030.000000	67.417	-141.6779
1044.000000	67.562	-141.2075
1060.000000	67.730	-140.7436
1075.000000	67.885	-140.3412
1090.000000	68.041	-139.9907
1106.000000	68.205	-139.6620
1120.000000	68.347	-139.4261
1138.000000	68.528	-139.1969
1150.000000	68.647	-139.0904
1172.000000	68.859	-139.0168
1180.000000	68.934	-139.0308
1206.000000	69.139	-139.2495
1220.000000	69.212	-139.4070
1241.000000	69.278	-139.2565
1250.000000	69.309	-139.0115
1265.000000	69.381	-138.5239
1280.000000	69.478	-138.1057
1315.000000	69.724	-137.5754
1320.000000	69.757	-137.5311
1340.000000	69.886	-137.4041
1360.000000	70.009	-137.3172
1380.000000	70.129	-137.2604
1400.000000	70.243	-137.2106
1430.000000	70.410	-137.1490
1450.000000	70.520	-137.1294
1475.000000	70.654	-137.1053
1500.000000	70.788	-137.1095
1525.000000	70.923	-137.1128
1550.000000	71.056	-137.1418
1575.000000	71.191	-137.1998
1600.000000	71.330	-137.2673
1625.000000	71.495	-137.3513
1650.000000	71.668	-137.4697
1675.000000	71.839	-137.6222
1700.000000	72.010	-137.7967
1725.000000	72.182	-138.0015
1750.000000	72.351	-138.2337
1775.000000	72.522	-138.5205
1800.000000	72.691	-138.8362
1825.000000	72.859	-139.1901
1850.000000	73.025	-139.5891
1875.000000	73.190	-140.0260
1900.000000	73.353	-140.5121
1925.000000	73.512	-141.0417
1950.000000	73.669	-141.6110
1975.000000	73.822	-142.2329
2000.000000	73.970	-142.9086
2030.000000	74.137	-143.7636
2060.000000	74.295	-144.6969
2090.000000	74.444	-145.6951
2120.000000	74.585	-146.7522
2140.000000	74.674	-147.4909
2180.000000	74.838	-149.0302
2200.000000	74.911	-149.8350
2240.000000	75.043	-151.5062
2270.000000	75.128	-152.7908
2300.000000	75.199	-154.1052
2330.000000	75.259	-155.4343
2360.000000	75.305	-156.7684
2400.000000	75.351	-158.5528
2430.000000	75.368	-159.8804
2470.000000	75.374	-161.6199
2500.000000	75.367	-162.8854
2540.000000	75.339	-164.5196
2580.000000	75.294	-166.0683
2620.000000	75.238	-167.5254
2650.000000	75.188	-168.5541
2690.000000	75.113	-169.8362
2720.000000	75.051	-170.7340
2760.000000	74.965	-171.8462
2800.000000	74.875	-172.8528
2850.000000	74.760	-173.9787
2900.000000	74.645	-174.9703
2950.000000	74.533	-175.8323
3000.000000	74.422	-176.5730
3040.000000	74.339	-177.0983
3070.000000	74.280	-177.4523
3110.000000	74.204	-177.8790
3150.000000	74.132	-178.2536
3200.000000	74.050	-178.6680
3250.000000	73.975	-179.0166
3300.000000	73.909	-179.3235
3350.000000	73.852	-179.5882
3400.000000	73.805	-179.8284
3450.000000	73.766	179.9547
3500.000000	73.736	179.7537
3550.000000	73.715	179.5587
3600.000000	73.701	179.3562
3650.000000	73.695	179.1523
3700.000000	73.698	178.9372
3750.000000	73.708	178.7068
3820.000000	73.734	178.3336
3870.000000	73.761	178.0248
3950.000000	73.815	177.4509
4000.000000	73.855	177.0316
4060.000000	73.905	176.4535
4120.000000	73.958	175.7944
4180.000000	74.013	175.0294
4250.000000	74.079	174.0102
4310.000000	74.132	173.0283
4370.000000	74.183	171.9352
4440.000000	74.230	170.5045
4500.000000	74.261	169.1465
4550.000000	74.276	167.9320
4620.000000	74.279	166.1189
4680.000000	74.259	164.4734
4750.000000	74.209	162.4678
4820.000000	74.126	160.4109
4870.000000	74.046	158.9325
4940.000000	73.902	156.8832
5000.000000	73.747	155.1718
5080.000000	73.487	152.9957
5150.000000	73.222	151.2301
5220.000000	72.930	149.6301
5300.000000	72.566	148.0321
5380.000000	72.179	146.7152
5450.000000	71.824	145.7885
5520.000000	71.459	145.0727
5600.000000	71.039	144.5056
5700.000000	70.509	144.1676
5800.000000	69.986	144.2053
5900.000000	69.474	144.5912
6000.000000	68.979	145.2688
6080.000000	68.598	146.0146
6150.000000	68.276	146.8129
6220.000000	67.970	147.7411
6300.000000	67.660	148.8770
6400.000000	67.348	150.3849
6500.000000	67.070	151.9787
6600.000000	66.814	153.7116
6700.000000	66.583	155.5310
6800.000000	66.376	157.4518
6900.000000	66.196	159.4588
7000.000000	66.044	161.5290
7100.000000	65.928	163.6271
7200.000000	65.846	165.6938
7300.000000	65.790	167.6830
7400.000000	65.756	169.6191
7500.000000	65.743	171.5256
7620.000000	65.762	173.7042
7750.000000	65.825	175.9491
7880.000000	65.931	177.9726
8000.000000	66.037	179.6131
8120.000000	66.096	-178.9686
8250.000000	66.170	-177.7872
8380.000000	66.268	-177.0199
8500.000000	66.374	-176.7067
8620.000000	66.489	-176.8105
8750.000000	66.607	-177.4582
8850.000000	66.684	-178.3421
9000.000000	66.760	179.6837
9120.000000	66.762	177.4840
9250.000000	66.670	174.4926
9380.000000	66.428	171.0143
9500.000000	66.026	167.7036
9620.000000	65.441	164.8374
9750.000000	64.641	162.8088
9880.000000	63.747	162.2354
10000.000000	62.922	162.9721
10150.000000	61.992	165.4265
10300.000000	61.179	169.2526
10440.000000	60.547	173.9474
10600.000000	60.025	-179.4242
10750.000000	59.808	-172.2718
10900.000000	59.936	-164.7953
11060.000000	60.497	-157.6205
11200.000000	61.260	-153.1199
11380.000000	62.343	-150.5080
11500.000000	62.989	-150.5002
11720.000000	63.867	-152.2949
11800.000000	64.102	-153.1169
12060.000000	64.734	-155.5938
12200.000000	65.081	-156.9216
12410.000000	65.686	-159.6846
12500.000000	65.963	-161.4313
12650.000000	66.404	-165.4814
12800.000000	66.751	-171.3022
13150.000000	66.454	169.2032
13200.000000	66.227	166.2608
13400.000000	64.893	156.0535
13600.000000	63.106	149.4890
13800.000000	61.188	146.5333
14000.000000	59.338	146.3920
14300.000000	56.836	149.6411
14500.000000	55.378	153.2661
14750.000000	53.794	158.7670
15000.000000	52.408	164.9531
15250.000000	51.214	171.6923
15500.000000	50.229	178.7451
15750.000000	49.428	-174.0139
16000.000000	48.863	-166.7242
16250.000000	48.691	-159.2750
16500.000000	48.728	-152.0423
16750.000000	48.919	-145.2758
17000.000000	49.231	-138.6497
17250.000000	49.660	-132.4146
17500.000000	50.241	-126.8691
17750.000000	50.948	-122.2069
18000.000000	51.772	-118.7306
18250.000000	52.714	-117.0914
18500.000000	53.748	-118.6532
18750.000000	54.458	-127.7060
19000.000000	53.093	-131.7088
19250.000000	52.981	-131.1906
19500.000000	52.355	-137.9183
19750.000000	50.936	-142.4310
