* Measurement data measured by REW V5.20.13
* Source: C:\Users\marcu\OneDrive\Desktop\audio_db\DUNU SA6 s.On Foam L.txt
* Format: Comma/Tab/Space delimited data
* Dated: Aug 14, 2023 5:52:16 PM
* REW Settings:
*  C-weighting compensation: Off
*  Target level: 75.0 dB
* Note: ; Measurement imported from C:\Users\marcu\OneDrive\Desktop\audio_db\DUNU SA6 s.On Foam L.txt Format: Comma/Tab/Space delimited data 54613 values loaded, 0 Hz to 20,000 Hz 
* Measurement: DUNU SA6 s.On Foam L
* Smoothing: None
* Frequency Step: 1/48 octave
* Start Frequency: 1.000 Hz
*
* Freq(Hz)	SPL(dB)	Phase(degrees)
1.000000	67.849	-119.3357
1.015000	67.821	-120.7925
1.030000	67.790	-122.2487
1.044000	67.758	-123.6081
1.060000	67.718	-125.1629
1.075000	67.676	-126.6227
1.090000	67.629	-128.0855
1.106000	67.576	-129.6469
1.120000	67.528	-130.9978
1.138000	67.465	-132.7117
1.150000	67.422	-133.8417
1.172000	67.341	-135.8915
1.180000	67.310	-136.6310
1.206000	67.206	-139.0185
1.220000	67.147	-140.2970
1.241000	67.053	-142.2106
1.250000	67.011	-143.0305
1.265000	66.938	-144.3985
1.280000	66.861	-145.7705
1.315000	66.664	-148.9999
1.320000	66.634	-149.4657
1.340000	66.507	-151.3435
1.360000	66.371	-153.2487
1.380000	66.225	-155.1866
1.400000	66.068	-157.1628
1.430000	65.810	-160.2105
1.450000	65.622	-162.3060
1.475000	65.367	-164.9797
1.500000	65.078	-167.5025
1.525000	64.757	-169.8714
1.550000	64.409	-172.1433
1.575000	64.039	-174.3752
1.600000	63.651	-176.6240
1.625000	63.250	-178.9464
1.650000	62.842	178.6007
1.675000	62.431	175.9602
1.700000	62.023	173.0755
1.725000	61.620	169.8895
1.750000	61.230	166.3455
1.775000	60.856	162.3865
1.800000	60.504	157.9556
1.825000	60.178	152.9960
1.850000	59.863	147.3805
1.875000	59.522	140.9737
1.900000	59.162	133.8828
1.925000	58.791	126.2237
1.950000	58.418	118.1125
1.975000	58.052	109.6651
2.000000	57.704	100.9976
2.030000	57.319	90.4694
2.060000	56.988	79.9915
2.090000	56.724	69.7646
2.120000	56.544	59.9890
2.140000	56.478	53.8216
2.180000	56.497	42.5935
2.200000	56.592	37.6487
2.240000	56.992	28.6047
2.270000	57.463	22.3389
2.300000	58.050	16.4796
2.330000	58.730	10.9939
2.360000	59.477	5.8489
2.400000	60.533	-0.5380
2.430000	61.338	-5.0160
2.470000	62.380	-10.6331
2.500000	63.106	-14.6235
2.540000	63.952	-19.7099
2.580000	64.617	-24.5554
2.620000	65.190	-28.8518
2.650000	65.582	-31.7112
2.690000	66.057	-35.1164
2.720000	66.382	-37.4172
2.760000	66.780	-40.2244
2.800000	67.144	-42.8213
2.850000	67.561	-45.9179
2.900000	67.950	-49.0227
2.950000	68.320	-52.2802
3.000000	68.644	-55.4382
3.040000	68.870	-57.8447
3.070000	69.021	-59.5847
3.110000	69.202	-61.8240
3.150000	69.362	-63.9781
3.200000	69.538	-66.5625
3.250000	69.693	-69.0403
3.300000	69.835	-71.4261
3.350000	69.953	-73.7197
3.400000	70.041	-75.9089
3.450000	70.103	-77.9865
3.500000	70.145	-79.9451
3.550000	70.170	-81.7773
3.600000	70.185	-83.4761
3.650000	70.193	-85.0339
3.700000	70.193	-86.4473
3.750000	70.170	-87.7232
3.820000	70.113	-89.2847
3.870000	70.062	-90.2436
3.950000	69.982	-91.5151
4.000000	69.943	-92.1504
4.060000	69.912	-92.7366
4.120000	69.879	-93.0583
4.180000	69.847	-93.1661
4.250000	69.823	-93.1121
4.310000	69.822	-92.9895
4.370000	69.846	-92.8684
4.440000	69.915	-92.7411
4.500000	70.004	-92.5111
4.550000	70.096	-92.2712
4.620000	70.245	-91.9392
4.680000	70.386	-91.7303
4.750000	70.558	-91.6683
4.820000	70.744	-91.8280
4.870000	70.893	-92.0244
4.940000	71.114	-92.4095
5.000000	71.307	-92.8395
5.080000	71.553	-93.5516
5.150000	71.746	-94.3055
5.220000	71.931	-95.2290
5.300000	72.132	-96.4561
5.380000	72.318	-97.7936
5.450000	72.461	-98.9952
5.520000	72.583	-100.1851
5.600000	72.697	-101.6213
5.700000	72.808	-103.4875
5.800000	72.888	-105.3112
5.900000	72.940	-106.9824
6.000000	72.956	-108.5744
6.080000	72.949	-109.7771
6.150000	72.936	-110.7502
6.220000	72.922	-111.6267
6.300000	72.901	-112.4987
6.400000	72.859	-113.4244
6.500000	72.817	-114.2008
6.600000	72.791	-114.8629
6.700000	72.780	-115.3633
6.800000	72.779	-115.7249
6.900000	72.793	-116.0505
7.000000	72.827	-116.4241
7.100000	72.884	-116.7788
7.200000	72.955	-117.1476
7.300000	73.032	-117.5969
7.400000	73.112	-118.1693
7.500000	73.201	-118.8322
7.620000	73.307	-119.7236
7.750000	73.402	-120.7922
7.880000	73.483	-122.0021
8.000000	73.543	-123.1606
8.120000	73.582	-124.2855
8.250000	73.602	-125.5154
8.380000	73.607	-126.6865
8.500000	73.602	-127.6537
8.620000	73.583	-128.5369
8.750000	73.560	-129.3979
8.850000	73.547	-129.9834
9.000000	73.528	-130.7276
9.120000	73.519	-131.2643
9.250000	73.523	-131.8195
9.380000	73.536	-132.3265
9.500000	73.554	-132.8052
9.620000	73.579	-133.3233
9.750000	73.612	-133.9069
9.880000	73.644	-134.5233
10.000000	73.671	-135.1339
10.150000	73.703	-135.9378
10.300000	73.726	-136.7435
10.440000	73.739	-137.5046
10.600000	73.746	-138.3540
10.750000	73.748	-139.1012
10.900000	73.744	-139.8120
11.060000	73.741	-140.5233
11.200000	73.738	-141.1024
11.380000	73.736	-141.8212
11.500000	73.738	-142.2874
11.720000	73.743	-143.1294
11.800000	73.745	-143.4399
12.060000	73.754	-144.4518
12.200000	73.756	-144.9971
12.410000	73.756	-145.8101
12.500000	73.756	-146.1488
12.650000	73.753	-146.7021
12.800000	73.750	-147.2415
13.150000	73.748	-148.4391
13.200000	73.748	-148.6088
13.400000	73.753	-149.2822
13.600000	73.760	-149.9680
13.800000	73.766	-150.6760
14.000000	73.770	-151.3965
14.300000	73.770	-152.4885
14.500000	73.764	-153.1945
14.750000	73.754	-154.0307
15.000000	73.746	-154.8091
15.250000	73.744	-155.5425
15.500000	73.750	-156.2689
15.750000	73.762	-157.0083
16.000000	73.777	-157.7863
16.250000	73.789	-158.5867
16.500000	73.795	-159.3930
16.750000	73.796	-160.1749
17.000000	73.795	-160.9104
17.250000	73.794	-161.6006
17.500000	73.798	-162.2512
17.750000	73.806	-162.8894
18.000000	73.816	-163.5261
18.250000	73.828	-164.1732
18.500000	73.838	-164.8251
18.750000	73.846	-165.4726
19.000000	73.851	-166.1071
19.250000	73.855	-166.7214
19.500000	73.858	-167.3190
19.750000	73.862	-167.9030
20.000000	73.865	-168.4811
20.299999	73.867	-169.1656
20.600000	73.867	-169.8370
20.900000	73.866	-170.4911
21.200001	73.866	-171.1289
21.400000	73.866	-171.5514
21.799999	73.868	-172.4031
22.000000	73.868	-172.8354
22.400000	73.865	-173.7079
22.700001	73.859	-174.3529
23.000000	73.852	-174.9761
23.299999	73.845	-175.5793
23.600000	73.841	-176.1740
24.000000	73.839	-176.9750
24.299999	73.837	-177.5876
24.700001	73.831	-178.4064
25.000000	73.825	-179.0047
25.400000	73.815	-179.7686
25.799999	73.809	179.4956
26.200001	73.805	178.7651
26.500000	73.803	178.2146
26.900000	73.799	177.4828
27.200001	73.793	176.9431
27.600000	73.785	176.2409
28.000000	73.776	175.5552
28.500000	73.763	174.7153
29.000000	73.749	173.8967
29.500000	73.734	173.0955
30.000000	73.719	172.2973
30.400000	73.705	171.6581
30.700001	73.693	171.1844
31.100000	73.676	170.5686
31.500000	73.660	169.9689
32.000000	73.642	169.2228
32.500000	73.624	168.4659
33.000000	73.604	167.7133
33.500000	73.582	166.9848
34.000000	73.561	166.2769
34.500000	73.542	165.5736
35.000000	73.522	164.8743
35.500000	73.500	164.1904
36.000000	73.478	163.5255
36.500000	73.455	162.8744
37.000000	73.432	162.2330
37.500000	73.409	161.6002
38.200001	73.376	160.7217
38.700001	73.349	160.1038
39.500000	73.307	159.1465
40.000000	73.282	158.5563
40.599998	73.251	157.8437
41.200001	73.217	157.1411
41.799999	73.183	156.4606
42.500000	73.145	155.6793
43.099998	73.110	155.0168
43.700001	73.076	154.3745
44.400002	73.036	153.6450
45.000000	73.003	153.0234
45.500000	72.974	152.5090
46.200001	72.932	151.8026
46.799999	72.895	151.2140
47.500000	72.852	150.5410
48.200001	72.810	149.8721
48.700001	72.780	149.3975
49.400002	72.736	148.7479
50.000000	72.699	148.2050
50.799999	72.650	147.4891
51.500000	72.606	146.8709
52.200001	72.562	146.2636
53.000000	72.511	145.5836
53.799999	72.460	144.9199
54.500000	72.415	144.3497
55.200001	72.371	143.7892
56.000000	72.322	143.1583
57.000000	72.260	142.3828
58.000000	72.200	141.6214
59.000000	72.136	140.8571
60.000000	72.070	140.1369
60.799999	72.019	139.5875
61.500000	71.977	139.1007
62.200001	71.935	138.6086
63.000000	71.882	138.0569
64.000000	71.818	137.3944
65.000000	71.757	136.7421
66.000000	71.694	136.1049
67.000000	71.632	135.4822
68.000000	71.569	134.8705
69.000000	71.507	134.2776
70.000000	71.446	133.6848
71.000000	71.383	133.0956
72.000000	71.319	132.5258
73.000000	71.257	131.9697
74.000000	71.196	131.4266
75.000000	71.136	130.8897
76.199997	71.065	130.2650
77.500000	70.989	129.5868
78.800003	70.910	128.9232
80.000000	70.837	128.3395
81.199997	70.767	127.7773
82.500000	70.692	127.1510
83.800003	70.614	126.5696
85.000000	70.546	126.0444
86.199997	70.479	125.5211
87.500000	70.408	124.9431
88.500000	70.350	124.5048
90.000000	70.266	123.8813
91.199997	70.199	123.3824
92.500000	70.126	122.8739
93.800003	70.056	122.3801
95.000000	69.994	121.9222
96.199997	69.932	121.4683
97.500000	69.865	120.9750
98.800003	69.798	120.4977
100.000000	69.738	120.0706
101.500000	69.664	119.5482
103.000000	69.591	119.0251
104.400002	69.523	118.5488
106.000000	69.445	118.0219
107.500000	69.375	117.5360
109.000000	69.305	117.0630
110.599998	69.234	116.5685
112.000000	69.171	116.1401
113.800003	69.092	115.5953
115.000000	69.038	115.2409
117.199997	68.941	114.6264
118.000000	68.907	114.4067
120.599998	68.798	113.6947
122.000000	68.739	113.3152
124.099998	68.653	112.7578
125.000000	68.616	112.5217
126.500000	68.556	112.1377
128.000000	68.498	111.7676
131.500000	68.364	110.9055
132.000000	68.344	110.7860
134.000000	68.266	110.3268
136.000000	68.192	109.8727
138.000000	68.119	109.4197
140.000000	68.047	108.9797
143.000000	67.945	108.3291
145.000000	67.877	107.9073
147.500000	67.793	107.4057
150.000000	67.712	106.9179
152.500000	67.632	106.4296
155.000000	67.554	105.9494
157.500000	67.478	105.4872
160.000000	67.406	105.0372
162.500000	67.336	104.5958
165.000000	67.267	104.1483
167.500000	67.200	103.7051
170.000000	67.136	103.2877
172.500000	67.075	102.8867
175.000000	67.010	102.5062
177.500000	66.950	102.1328
180.000000	66.893	101.7463
182.500000	66.836	101.3726
185.000000	66.783	101.0101
187.500000	66.731	100.6382
190.000000	66.679	100.2811
192.500000	66.628	99.9299
195.000000	66.579	99.5869
197.500000	66.533	99.2437
200.000000	66.490	98.9081
203.000000	66.437	98.5194
206.000000	66.385	98.1337
209.000000	66.335	97.7572
212.000000	66.289	97.3928
214.000000	66.258	97.1522
218.000000	66.197	96.6924
220.000000	66.167	96.4599
224.000000	66.111	95.9947
227.000000	66.072	95.6590
230.000000	66.034	95.3337
233.000000	65.997	95.0065
236.000000	65.961	94.6846
240.000000	65.917	94.2753
243.000000	65.884	93.9717
247.000000	65.844	93.5614
250.000000	65.814	93.2697
254.000000	65.775	92.8953
258.000000	65.744	92.5144
262.000000	65.712	92.1484
265.000000	65.690	91.8838
269.000000	65.661	91.5344
272.000000	65.640	91.2720
276.000000	65.615	90.9219
280.000000	65.593	90.5875
285.000000	65.570	90.1750
290.000000	65.546	89.7739
295.000000	65.527	89.3868
300.000000	65.510	88.9937
304.000000	65.499	88.6951
307.000000	65.492	88.4697
311.000000	65.482	88.1632
315.000000	65.475	87.8645
320.000000	65.468	87.5063
325.000000	65.463	87.1566
330.000000	65.463	86.8126
335.000000	65.462	86.4734
340.000000	65.462	86.1385
345.000000	65.466	85.7941
350.000000	65.474	85.4700
355.000000	65.479	85.1422
360.000000	65.484	84.8234
365.000000	65.494	84.5026
370.000000	65.505	84.1832
375.000000	65.516	83.8683
382.000000	65.536	83.4397
387.000000	65.552	83.1357
395.000000	65.580	82.6650
400.000000	65.596	82.3492
406.000000	65.621	81.9860
412.000000	65.646	81.6363
418.000000	65.671	81.2963
425.000000	65.701	80.8917
431.000000	65.727	80.5431
437.000000	65.753	80.1918
444.000000	65.787	79.8063
450.000000	65.815	79.4663
455.000000	65.839	79.1884
462.000000	65.874	78.8021
468.000000	65.904	78.4792
475.000000	65.940	78.1067
482.000000	65.975	77.7278
487.000000	66.002	77.4621
494.000000	66.041	77.0932
500.000000	66.074	76.7779
508.000000	66.117	76.3729
515.000000	66.156	76.0309
522.000000	66.193	75.6821
530.000000	66.237	75.2946
538.000000	66.281	74.9111
545.000000	66.320	74.5761
552.000000	66.360	74.2391
560.000000	66.403	73.8639
570.000000	66.460	73.4062
580.000000	66.516	72.9624
590.000000	66.573	72.5255
600.000000	66.629	72.0831
608.000000	66.674	71.7391
615.000000	66.714	71.4426
622.000000	66.753	71.1571
630.000000	66.795	70.8379
640.000000	66.848	70.4373
650.000000	66.902	70.0458
660.000000	66.955	69.6819
670.000000	67.009	69.3033
680.000000	67.060	68.9376
690.000000	67.112	68.5909
700.000000	67.167	68.2546
710.000000	67.220	67.9293
720.000000	67.272	67.6076
730.000000	67.324	67.3067
740.000000	67.375	67.0059
750.000000	67.427	66.7148
762.000000	67.492	66.3857
775.000000	67.561	66.0355
788.000000	67.631	65.7081
800.000000	67.694	65.4142
812.000000	67.761	65.1378
825.000000	67.833	64.8515
838.000000	67.907	64.5859
850.000000	67.977	64.3372
862.000000	68.050	64.0890
875.000000	68.129	63.8284
885.000000	68.191	63.6232
900.000000	68.288	63.3136
912.000000	68.368	63.0778
925.000000	68.455	62.8065
938.000000	68.544	62.5204
950.000000	68.627	62.2446
962.000000	68.713	61.9542
975.000000	68.804	61.6342
988.000000	68.896	61.2951
1000.000000	68.979	60.9636
1015.000000	69.083	60.5381
1030.000000	69.188	60.0798
1044.000000	69.283	59.6293
1060.000000	69.391	59.0827
1075.000000	69.490	58.5419
1090.000000	69.584	57.9796
1106.000000	69.680	57.3749
1120.000000	69.762	56.8231
1138.000000	69.862	56.0883
1150.000000	69.925	55.5853
1172.000000	70.032	54.6606
1180.000000	70.069	54.3269
1206.000000	70.178	53.2336
1220.000000	70.233	52.6539
1241.000000	70.308	51.7972
1250.000000	70.338	51.4332
1265.000000	70.385	50.8314
1280.000000	70.429	50.2496
1315.000000	70.522	48.9479
1320.000000	70.534	48.7681
1340.000000	70.582	48.0587
1360.000000	70.626	47.3784
1380.000000	70.667	46.7324
1400.000000	70.705	46.1179
1430.000000	70.761	45.2434
1450.000000	70.796	44.6829
1475.000000	70.841	44.0209
1500.000000	70.886	43.3873
1525.000000	70.931	42.7819
1550.000000	70.977	42.1926
1575.000000	71.022	41.6271
1600.000000	71.068	41.0870
1625.000000	71.115	40.5464
1650.000000	71.166	40.0095
1675.000000	71.217	39.4767
1700.000000	71.268	38.9530
1725.000000	71.320	38.4298
1750.000000	71.375	37.9026
1775.000000	71.429	37.3681
1800.000000	71.484	36.8240
1825.000000	71.542	36.2704
1850.000000	71.597	35.7045
1875.000000	71.654	35.1251
1900.000000	71.711	34.5274
1925.000000	71.769	33.9153
1950.000000	71.826	33.2849
1975.000000	71.881	32.6310
2000.000000	71.936	31.9550
2030.000000	72.001	31.1048
2060.000000	72.063	30.2222
2090.000000	72.121	29.2966
2120.000000	72.175	28.3321
2140.000000	72.207	27.6671
2180.000000	72.264	26.2887
2200.000000	72.289	25.5822
2240.000000	72.329	24.1274
2270.000000	72.351	23.0088
2300.000000	72.367	21.8840
2330.000000	72.373	20.7443
2360.000000	72.372	19.5994
2400.000000	72.357	18.0768
2430.000000	72.335	16.9555
2470.000000	72.295	15.4880
2500.000000	72.257	14.4126
2540.000000	72.194	13.0441
2580.000000	72.118	11.7582
2620.000000	72.034	10.5568
2650.000000	71.965	9.7205
2690.000000	71.866	8.7051
2720.000000	71.788	8.0239
2760.000000	71.680	7.2107
2800.000000	71.570	6.5288
2850.000000	71.436	5.8435
2900.000000	71.306	5.3471
2950.000000	71.186	5.0222
3000.000000	71.080	4.8566
3040.000000	71.009	4.8134
3070.000000	70.964	4.8184
3110.000000	70.915	4.8599
3150.000000	70.879	4.9228
3200.000000	70.851	4.9896
3250.000000	70.836	5.0308
3300.000000	70.827	5.0588
3350.000000	70.822	5.0931
3400.000000	70.821	5.1724
3450.000000	70.825	5.3273
3500.000000	70.842	5.5500
3550.000000	70.874	5.8453
3600.000000	70.924	6.1896
3650.000000	70.994	6.5552
3700.000000	71.088	6.9127
3750.000000	71.206	7.2267
3820.000000	71.405	7.5506
3870.000000	71.572	7.6683
3950.000000	71.875	7.5627
4000.000000	72.084	7.2721
4060.000000	72.351	6.6683
4120.000000	72.629	5.7385
4180.000000	72.911	4.4335
4250.000000	73.239	2.3688
4310.000000	73.503	0.0588
4370.000000	73.738	-2.8162
4440.000000	73.949	-6.9210
4500.000000	74.049	-11.0418
4550.000000	74.058	-14.8173
4620.000000	73.936	-20.3751
4680.000000	73.694	-25.0764
4750.000000	73.256	-30.0692
4820.000000	72.673	-34.1339
4870.000000	72.189	-36.3439
4940.000000	71.453	-38.4048
5000.000000	70.794	-39.2419
5080.000000	69.915	-39.1360
5150.000000	69.174	-38.0256
5220.000000	68.484	-36.0485
5300.000000	67.775	-32.8577
5380.000000	67.181	-28.8108
5450.000000	66.772	-24.7037
5520.000000	66.485	-20.2208
5600.000000	66.312	-14.9205
5700.000000	66.309	-8.0572
5800.000000	66.589	-1.7589
5900.000000	66.904	4.0057
6000.000000	67.618	11.0040
6080.000000	68.527	14.7197
6150.000000	69.390	16.3417
6220.000000	70.254	16.5349
6300.000000	71.179	15.0229
6400.000000	72.114	10.8281
6500.000000	72.699	4.9424
6600.000000	72.917	-1.3218
6700.000000	72.855	-6.8378
6800.000000	72.632	-11.1030
6900.000000	72.354	-14.1528
7000.000000	72.079	-16.2557
7100.000000	71.844	-17.7486
7200.000000	71.660	-18.9762
7300.000000	71.517	-20.1812
7400.000000	71.393	-21.4973
7500.000000	71.269	-23.0012
7620.000000	71.093	-25.0713
7750.000000	70.833	-27.5339
7880.000000	70.476	-29.9608
8000.000000	70.059	-31.9091
8120.000000	69.573	-33.3572
8250.000000	69.000	-34.2275
8380.000000	68.412	-34.3305
8500.000000	67.889	-33.7993
8620.000000	67.405	-32.7738
8750.000000	66.943	-31.2117
8850.000000	66.640	-29.7858
9000.000000	66.276	-27.4286
9120.000000	66.070	-25.4847
9250.000000	65.929	-23.4684
9380.000000	65.875	-21.7060
9500.000000	65.896	-20.4305
9620.000000	65.983	-19.6381
9750.000000	66.135	-19.6575
9880.000000	66.288	-20.9682
10000.000000	66.335	-23.5044
10150.000000	66.091	-28.0541
10300.000000	65.363	-32.4628
10440.000000	64.307	-34.4915
10600.000000	62.940	-33.1276
10750.000000	61.795	-28.7067
10900.000000	60.951	-22.4279
11060.000000	60.421	-14.9424
11200.000000	60.231	-8.4692
11380.000000	60.281	-0.8802
11500.000000	60.448	3.5547
11720.000000	60.928	10.1089
11800.000000	61.137	11.9618
12060.000000	61.807	16.0822
12200.000000	62.097	17.4526
12410.000000	62.429	19.1022
12500.000000	62.551	19.6051
12650.000000	62.723	20.1807
12800.000000	62.833	20.5974
13150.000000	62.918	21.8751
13200.000000	62.922	22.1328
13400.000000	62.949	23.3071
13600.000000	63.013	24.5901
13800.000000	63.145	25.7945
14000.000000	63.364	26.6091
14300.000000	63.855	26.1190
14500.000000	64.212	23.8334
14750.000000	64.444	18.2516
15000.000000	64.149	10.9633
15250.000000	63.261	5.0354
15500.000000	62.149	2.7211
15750.000000	61.296	2.7725
16000.000000	60.729	1.3796
16250.000000	59.768	-1.7835
16500.000000	58.304	-1.5240
16750.000000	56.994	3.0628
17000.000000	56.143	9.5953
17250.000000	55.712	16.4055
17500.000000	55.620	22.7162
17750.000000	55.805	28.0157
18000.000000	56.210	31.9329
18250.000000	56.755	33.9546
18500.000000	57.338	33.6733
18750.000000	57.823	30.8943
19000.000000	58.047	25.9080
19250.000000	57.911	19.4207
19500.000000	57.360	12.2704
19750.000000	56.385	5.4191
