* Measurement data measured by REW V5.20.13
* Source: C:\Users\marcu\OneDrive\Desktop\audio_db\Hidizs MS3 f.Silver Foam L.txt
* Format: Comma/Tab/Space delimited data
* Dated: Jul 16, 2023 8:18:24 PM
* REW Settings:
*  C-weighting compensation: Off
*  Target level: 75.0 dB
* Note: ; Measurement imported from C:\Users\marcu\OneDrive\Desktop\audio_db\Hidizs MS3 f.Silver Foam L.txt Format: Comma/Tab/Space delimited data 54613 values loaded, 0 Hz to 20,000 Hz 
* Measurement: Hidizs MS3 f.Silver Foam L
* Smoothing: None
* Frequency Step: 1/48 octave
* Start Frequency: 1.000 Hz
*
* Freq(Hz)	SPL(dB)	Phase(degrees)
1.000000	55.320	132.1727
1.015000	55.188	131.3783
1.030000	55.052	130.5737
1.044000	54.923	129.8128
1.060000	54.771	128.9308
1.075000	54.625	128.0910
1.090000	54.476	127.2379
1.106000	54.312	126.3170
1.120000	54.166	125.5255
1.138000	53.975	124.5296
1.150000	53.845	123.8763
1.172000	53.602	122.6934
1.180000	53.512	122.2661
1.206000	53.214	120.8784
1.220000	53.049	120.1268
1.241000	52.798	118.9852
1.250000	52.689	118.4885
1.265000	52.503	117.6476
1.280000	52.315	116.7872
1.315000	51.864	114.6818
1.320000	51.799	114.3678
1.340000	51.532	113.0730
1.360000	51.259	111.7094
1.380000	50.981	110.2680
1.400000	50.697	108.7396
1.430000	50.260	106.2641
1.450000	49.961	104.4787
1.475000	49.577	102.0868
1.500000	49.152	99.5759
1.525000	48.690	96.9605
1.550000	48.198	94.2392
1.575000	47.684	91.4104
1.600000	47.158	88.4728
1.625000	46.627	85.4250
1.650000	46.100	82.2656
1.675000	45.586	78.9931
1.700000	45.092	75.6060
1.725000	44.628	72.1031
1.750000	44.202	68.4829
1.775000	43.822	64.7439
1.800000	43.497	60.8847
1.825000	43.235	56.9040
1.850000	43.037	52.7093
1.875000	42.887	48.1196
1.900000	42.782	43.1950
1.925000	42.716	38.0052
1.950000	42.687	32.6204
1.975000	42.691	27.1104
2.000000	42.724	21.5452
2.030000	42.798	14.8925
2.060000	42.901	8.3819
2.090000	43.029	2.1343
2.120000	43.174	-3.7295
2.140000	43.277	-7.3658
2.180000	43.491	-13.8221
2.200000	43.599	-16.5719
2.240000	43.859	-21.3257
2.270000	44.101	-24.3714
2.300000	44.375	-27.0206
2.330000	44.675	-29.3173
2.360000	44.993	-31.3054
2.400000	45.433	-33.5523
2.430000	45.766	-34.9916
2.470000	46.200	-36.6664
2.500000	46.509	-37.7963
2.540000	46.885	-39.2183
2.580000	47.209	-40.0588
2.620000	47.499	-40.1867
2.650000	47.701	-40.3560
2.690000	47.954	-40.6517
2.720000	48.135	-40.9073
2.760000	48.367	-41.2655
2.800000	48.593	-41.6123
2.850000	48.876	-41.9771
2.900000	49.167	-42.2031
2.950000	49.474	-42.1617
3.000000	49.784	-41.7913
3.040000	50.031	-41.3567
3.070000	50.217	-40.9713
3.110000	50.465	-40.4042
3.150000	50.714	-39.8057
3.200000	51.028	-39.0628
3.250000	51.346	-38.3847
3.300000	51.670	-37.8339
3.350000	52.002	-37.3552
3.400000	52.342	-36.8897
3.450000	52.687	-36.4510
3.500000	53.033	-36.0527
3.550000	53.377	-35.7084
3.600000	53.714	-35.4318
3.650000	54.042	-35.2363
3.700000	54.361	-35.1326
3.750000	54.677	-35.1139
3.820000	55.111	-35.2078
3.870000	55.414	-35.3443
3.950000	55.881	-35.6504
4.000000	56.160	-35.8778
4.060000	56.478	-36.1792
4.120000	56.782	-36.5547
4.180000	57.072	-36.9925
4.250000	57.394	-37.5538
4.310000	57.657	-38.0539
4.370000	57.908	-38.5491
4.440000	58.187	-39.1119
4.500000	58.410	-39.6149
4.550000	58.587	-40.0433
4.620000	58.822	-40.6441
4.680000	59.014	-41.1482
4.750000	59.231	-41.7079
4.820000	59.439	-42.2335
4.870000	59.579	-42.5976
4.940000	59.766	-43.0908
5.000000	59.920	-43.4974
5.080000	60.121	-44.0152
5.150000	60.295	-44.4434
5.220000	60.464	-44.8405
5.300000	60.651	-45.2637
5.380000	60.833	-45.6684
5.450000	60.992	-46.0185
5.520000	61.152	-46.3727
5.600000	61.334	-46.7632
5.700000	61.560	-47.2410
5.800000	61.784	-47.7350
5.900000	62.006	-48.2711
6.000000	62.229	-48.8349
6.080000	62.406	-49.3064
6.150000	62.558	-49.7379
6.220000	62.708	-50.1901
6.300000	62.876	-50.7359
6.400000	63.083	-51.4570
6.500000	63.285	-52.2102
6.600000	63.479	-52.9842
6.700000	63.665	-53.7868
6.800000	63.844	-54.6161
6.900000	64.017	-55.4536
7.000000	64.183	-56.2844
7.100000	64.342	-57.1204
7.200000	64.495	-57.9557
7.300000	64.644	-58.7784
7.400000	64.790	-59.5817
7.500000	64.930	-60.3718
7.620000	65.095	-61.3025
7.750000	65.273	-62.2874
7.880000	65.449	-63.2444
8.000000	65.610	-64.1145
8.120000	65.772	-64.9814
8.250000	65.947	-65.9100
8.380000	66.123	-66.8387
8.500000	66.283	-67.7058
8.620000	66.443	-68.5783
8.750000	66.614	-69.5295
8.850000	66.743	-70.2670
9.000000	66.934	-71.3843
9.120000	67.082	-72.2772
9.250000	67.238	-73.2381
9.380000	67.388	-74.1962
9.500000	67.522	-75.0655
9.620000	67.654	-75.9150
9.750000	67.792	-76.8173
9.880000	67.919	-77.6927
10.000000	68.021	-78.4729
10.150000	68.134	-79.4147
10.300000	68.240	-80.3209
10.440000	68.331	-81.1320
10.600000	68.431	-82.0281
10.750000	68.527	-82.8436
10.900000	68.621	-83.6356
11.060000	68.720	-84.4679
11.200000	68.806	-85.1839
11.380000	68.913	-86.0945
11.500000	68.983	-86.6974
11.720000	69.106	-87.7918
11.800000	69.148	-88.1867
12.060000	69.280	-89.4570
12.200000	69.345	-90.1295
12.410000	69.439	-91.1230
12.500000	69.483	-91.5415
12.650000	69.562	-92.2300
12.800000	69.642	-92.9067
13.150000	69.817	-94.4381
13.200000	69.841	-94.6522
13.400000	69.932	-95.4959
13.600000	70.020	-96.3243
13.800000	70.104	-97.1387
14.000000	70.184	-97.9437
14.300000	70.299	-99.1364
14.500000	70.371	-99.9253
14.750000	70.458	-100.9060
15.000000	70.539	-101.8810
15.250000	70.616	-102.8491
15.500000	70.689	-103.8080
15.750000	70.760	-104.7564
16.000000	70.830	-105.6932
16.250000	70.902	-106.6198
16.500000	70.977	-107.5377
16.750000	71.050	-108.4492
17.000000	71.120	-109.3557
17.250000	71.188	-110.2556
17.500000	71.253	-111.1465
17.750000	71.314	-112.0213
18.000000	71.372	-112.8754
18.250000	71.428	-113.7033
18.500000	71.481	-114.5012
18.750000	71.533	-115.2702
19.000000	71.585	-116.0113
19.250000	71.637	-116.7302
19.500000	71.687	-117.4321
19.750000	71.738	-118.1213
20.000000	71.789	-118.8036
20.299999	71.849	-119.6165
20.600000	71.906	-120.4247
20.900000	71.958	-121.2271
21.200001	72.004	-122.0194
21.400000	72.032	-122.5377
21.799999	72.080	-123.5424
22.000000	72.102	-124.0256
22.400000	72.142	-124.9527
22.700001	72.171	-125.6201
23.000000	72.199	-126.2751
23.299999	72.227	-126.9277
23.600000	72.255	-127.5814
24.000000	72.288	-128.4512
24.299999	72.310	-129.0927
24.700001	72.338	-129.9224
25.000000	72.360	-130.5267
25.400000	72.393	-131.3227
25.799999	72.428	-132.1298
26.200001	72.460	-132.9549
26.500000	72.480	-133.5732
26.900000	72.502	-134.3713
27.200001	72.515	-134.9358
27.600000	72.534	-135.6410
28.000000	72.557	-136.3141
28.500000	72.588	-137.1554
29.000000	72.615	-138.0130
29.500000	72.635	-138.8575
30.000000	72.646	-139.6559
30.400000	72.655	-140.2626
30.700001	72.662	-140.7069
31.100000	72.669	-141.2923
31.500000	72.676	-141.8700
32.000000	72.683	-142.5754
32.500000	72.690	-143.2661
33.000000	72.700	-143.9604
33.500000	72.708	-144.6695
34.000000	72.714	-145.3831
34.500000	72.715	-146.0769
35.000000	72.714	-146.7318
35.500000	72.716	-147.3437
36.000000	72.721	-147.9287
36.500000	72.731	-148.5147
37.000000	72.740	-149.1196
37.500000	72.745	-149.7291
38.200001	72.744	-150.5279
38.700001	72.744	-151.0514
39.500000	72.748	-151.9038
40.000000	72.746	-152.4679
40.599998	72.733	-153.1200
41.200001	72.718	-153.6901
41.799999	72.710	-154.2067
42.500000	72.708	-154.8278
43.099998	72.707	-155.3944
43.700001	72.703	-155.9625
44.400002	72.696	-156.6095
45.000000	72.691	-157.1561
45.500000	72.684	-157.6001
46.200001	72.673	-158.1826
46.799999	72.667	-158.6503
47.500000	72.666	-159.2012
48.200001	72.663	-159.7725
48.700001	72.659	-160.1769
49.400002	72.651	-160.7227
50.000000	72.642	-161.1754
50.799999	72.631	-161.7564
51.500000	72.624	-162.2469
52.200001	72.615	-162.7383
53.000000	72.604	-163.2979
53.799999	72.591	-163.8359
54.500000	72.580	-164.2881
55.200001	72.572	-164.7332
56.000000	72.564	-165.2582
57.000000	72.550	-165.9217
58.000000	72.535	-166.5366
59.000000	72.521	-167.1568
60.000000	72.500	-167.7347
60.799999	72.487	-168.1624
61.500000	72.474	-168.5423
62.200001	72.460	-168.9099
63.000000	72.445	-169.3101
64.000000	72.427	-169.8205
65.000000	72.408	-170.3394
66.000000	72.388	-170.8596
67.000000	72.367	-171.3555
68.000000	72.349	-171.8308
69.000000	72.331	-172.3141
70.000000	72.308	-172.7666
71.000000	72.288	-173.1866
72.000000	72.270	-173.6093
73.000000	72.252	-174.0490
74.000000	72.229	-174.4986
75.000000	72.203	-174.9076
76.199997	72.178	-175.3647
77.500000	72.156	-175.8648
78.800003	72.136	-176.4116
80.000000	72.103	-176.9076
81.199997	72.072	-177.3266
82.500000	72.043	-177.7824
83.800003	72.012	-178.2282
85.000000	71.983	-178.6184
86.199997	71.962	-179.0046
87.500000	71.940	-179.4626
88.500000	71.920	-179.8128
90.000000	71.889	179.6942
91.199997	71.863	179.3238
92.500000	71.837	178.9613
93.800003	71.813	178.5845
95.000000	71.787	178.2375
96.199997	71.761	177.8965
97.500000	71.730	177.5379
98.800003	71.702	177.1870
100.000000	71.674	176.8663
101.500000	71.643	176.4816
103.000000	71.610	176.1089
104.400002	71.582	175.7712
106.000000	71.548	175.3790
107.500000	71.517	175.0251
109.000000	71.482	174.6757
110.599998	71.447	174.3278
112.000000	71.416	174.0194
113.800003	71.377	173.6361
115.000000	71.351	173.3878
117.199997	71.305	172.9460
118.000000	71.288	172.7858
120.599998	71.234	172.2593
122.000000	71.203	171.9810
124.099998	71.154	171.6195
125.000000	71.137	171.4754
126.500000	71.111	171.2242
128.000000	71.087	170.9743
131.500000	71.025	170.3830
132.000000	71.016	170.2984
134.000000	70.976	169.9727
136.000000	70.938	169.6941
138.000000	70.907	169.4196
140.000000	70.874	169.1328
143.000000	70.817	168.7346
145.000000	70.778	168.4667
147.500000	70.734	168.1348
150.000000	70.688	167.8494
152.500000	70.645	167.5780
155.000000	70.601	167.3035
157.500000	70.556	167.0205
160.000000	70.508	166.7496
162.500000	70.452	166.4913
165.000000	70.395	166.2626
167.500000	70.337	166.0673
170.000000	70.279	165.8879
172.500000	70.220	165.6797
175.000000	70.164	165.4601
177.500000	70.109	165.2398
180.000000	70.056	165.0804
182.500000	69.999	164.9553
185.000000	69.943	164.8085
187.500000	69.887	164.6196
190.000000	69.834	164.4335
192.500000	69.783	164.2884
195.000000	69.729	164.1721
197.500000	69.672	164.0695
200.000000	69.617	163.9760
203.000000	69.559	163.8618
206.000000	69.505	163.7316
209.000000	69.450	163.5884
212.000000	69.391	163.4852
214.000000	69.352	163.4401
218.000000	69.281	163.3407
220.000000	69.246	163.2845
224.000000	69.176	163.1744
227.000000	69.125	163.0941
230.000000	69.077	163.0309
233.000000	69.025	162.9875
236.000000	68.969	162.9598
240.000000	68.890	162.9256
243.000000	68.840	162.8967
247.000000	68.781	162.8746
250.000000	68.732	162.8787
254.000000	68.663	162.8884
258.000000	68.595	162.8958
262.000000	68.529	162.9114
265.000000	68.484	162.9175
269.000000	68.430	162.9344
272.000000	68.388	162.9731
276.000000	68.323	163.0209
280.000000	68.260	163.0767
285.000000	68.186	163.1910
290.000000	68.116	163.2639
295.000000	68.049	163.3456
300.000000	67.978	163.4802
304.000000	67.917	163.6112
307.000000	67.874	163.6929
311.000000	67.824	163.7934
315.000000	67.775	163.9051
320.000000	67.709	164.0741
325.000000	67.641	164.2501
330.000000	67.575	164.4155
335.000000	67.512	164.5667
340.000000	67.453	164.7489
345.000000	67.391	164.9933
350.000000	67.327	165.2187
355.000000	67.268	165.4323
360.000000	67.211	165.6292
365.000000	67.155	165.8315
370.000000	67.099	166.0723
375.000000	67.042	166.3336
382.000000	66.964	166.6736
387.000000	66.915	166.9179
395.000000	66.830	167.3376
400.000000	66.775	167.6048
406.000000	66.718	167.9232
412.000000	66.662	168.2456
418.000000	66.606	168.5714
425.000000	66.542	168.9757
431.000000	66.488	169.3253
437.000000	66.437	169.6762
444.000000	66.377	170.1016
450.000000	66.328	170.4633
455.000000	66.283	170.7524
462.000000	66.221	171.1673
468.000000	66.170	171.5665
475.000000	66.117	172.0437
482.000000	66.061	172.5120
487.000000	66.020	172.8271
494.000000	65.966	173.2827
500.000000	65.924	173.6913
508.000000	65.876	174.2257
515.000000	65.832	174.7216
522.000000	65.786	175.2290
530.000000	65.734	175.7988
538.000000	65.689	176.3604
545.000000	65.651	176.8823
552.000000	65.608	177.4155
560.000000	65.559	178.0078
570.000000	65.503	178.7589
580.000000	65.449	179.5632
590.000000	65.398	-179.6296
600.000000	65.354	-178.8671
608.000000	65.317	-178.2303
615.000000	65.285	-177.6497
622.000000	65.255	-177.0648
630.000000	65.226	-176.3853
640.000000	65.195	-175.5280
650.000000	65.161	-174.7060
660.000000	65.132	-173.8655
670.000000	65.105	-172.9623
680.000000	65.077	-172.0312
690.000000	65.052	-171.1123
700.000000	65.031	-170.2113
710.000000	65.013	-169.3055
720.000000	65.000	-168.3683
730.000000	64.986	-167.3909
740.000000	64.974	-166.4088
750.000000	64.967	-165.3899
762.000000	64.968	-164.1693
775.000000	64.979	-162.8726
788.000000	64.994	-161.5616
800.000000	65.013	-160.2810
812.000000	65.030	-158.9422
825.000000	65.058	-157.5181
838.000000	65.093	-156.1099
850.000000	65.144	-154.8149
862.000000	65.205	-153.5308
875.000000	65.276	-152.1401
885.000000	65.338	-151.0836
900.000000	65.445	-149.5511
912.000000	65.544	-148.3944
925.000000	65.655	-147.2170
938.000000	65.771	-146.0717
950.000000	65.882	-145.0105
962.000000	65.998	-143.9380
975.000000	66.129	-142.8468
988.000000	66.269	-141.8505
1000.000000	66.414	-140.9844
1015.000000	66.609	-140.0026
1030.000000	66.807	-139.0958
1044.000000	66.994	-138.3128
1060.000000	67.207	-137.5228
1075.000000	67.405	-136.8895
1090.000000	67.603	-136.3791
1106.000000	67.812	-135.9181
1120.000000	67.986	-135.5627
1138.000000	68.198	-135.1766
1150.000000	68.333	-134.9534
1172.000000	68.567	-134.6105
1180.000000	68.650	-134.5009
1206.000000	68.909	-134.1960
1220.000000	69.041	-134.0565
1241.000000	69.229	-133.8601
1250.000000	69.302	-133.7711
1265.000000	69.408	-133.6292
1280.000000	69.504	-133.4918
1315.000000	69.718	-133.1714
1320.000000	69.747	-133.1247
1340.000000	69.865	-132.9569
1360.000000	69.979	-132.7661
1380.000000	70.095	-132.5768
1400.000000	70.206	-132.3894
1430.000000	70.374	-132.1044
1450.000000	70.486	-131.9171
1475.000000	70.627	-131.7117
1500.000000	70.769	-131.5010
1525.000000	70.914	-131.2978
1550.000000	71.060	-131.1451
1575.000000	71.208	-131.0068
1600.000000	71.368	-130.8913
1625.000000	71.553	-130.8434
1650.000000	71.744	-130.8393
1675.000000	71.934	-130.8473
1700.000000	72.124	-130.9238
1725.000000	72.317	-131.0871
1750.000000	72.509	-131.2920
1775.000000	72.699	-131.5448
1800.000000	72.889	-131.9054
1825.000000	73.073	-132.3491
1850.000000	73.251	-132.8214
1875.000000	73.423	-133.3807
1900.000000	73.592	-134.0602
1925.000000	73.755	-134.8174
1950.000000	73.909	-135.6255
1975.000000	74.051	-136.5258
2000.000000	74.183	-137.5113
2030.000000	74.321	-138.7758
2060.000000	74.437	-140.1216
2090.000000	74.536	-141.5499
2120.000000	74.614	-143.0485
2140.000000	74.654	-144.0604
2180.000000	74.704	-146.1003
2200.000000	74.717	-147.1169
2240.000000	74.722	-149.1522
2270.000000	74.702	-150.6271
2300.000000	74.662	-152.0058
2330.000000	74.606	-153.3061
2360.000000	74.543	-154.5284
2400.000000	74.447	-156.0167
2430.000000	74.363	-156.9972
2470.000000	74.234	-158.0938
2500.000000	74.131	-158.7944
2540.000000	73.991	-159.5584
2580.000000	73.851	-160.1204
2620.000000	73.713	-160.5053
2650.000000	73.613	-160.6871
2690.000000	73.480	-160.7743
2720.000000	73.386	-160.7307
2760.000000	73.268	-160.5832
2800.000000	73.161	-160.3042
2850.000000	73.044	-159.7864
2900.000000	72.950	-159.1429
2950.000000	72.879	-158.3820
3000.000000	72.824	-157.5056
3040.000000	72.794	-156.7354
3070.000000	72.782	-156.1401
3110.000000	72.783	-155.3092
3150.000000	72.800	-154.4547
3200.000000	72.840	-153.3580
3250.000000	72.901	-152.2444
3300.000000	72.979	-151.1099
3350.000000	73.084	-149.9866
3400.000000	73.216	-148.9190
3450.000000	73.372	-147.8748
3500.000000	73.545	-146.8874
3550.000000	73.740	-145.9801
3600.000000	73.954	-145.1467
3650.000000	74.189	-144.4225
3700.000000	74.450	-143.8498
3750.000000	74.731	-143.4553
3820.000000	75.137	-143.1996
3870.000000	75.435	-143.2971
3950.000000	75.930	-144.0639
4000.000000	76.237	-144.9408
4060.000000	76.596	-146.4538
4120.000000	76.945	-148.5540
4180.000000	77.270	-151.2673
4250.000000	77.599	-155.2025
4310.000000	77.819	-159.1915
4370.000000	77.964	-163.6198
4440.000000	78.025	-169.1344
4500.000000	77.982	-173.9199
4550.000000	77.880	-177.7638
4620.000000	77.643	177.3335
4680.000000	77.359	173.7612
4750.000000	76.954	170.4311
4820.000000	76.491	168.0519
4870.000000	76.137	166.9014
4940.000000	75.629	165.9837
5000.000000	75.191	165.7471
5080.000000	74.621	166.0651
5150.000000	74.152	166.8315
5220.000000	73.723	167.9732
5300.000000	73.281	169.6044
5380.000000	72.890	171.5298
5450.000000	72.588	173.3671
5520.000000	72.318	175.3685
5600.000000	72.060	177.7920
5700.000000	71.818	-179.0627
5800.000000	71.643	-175.9100
5900.000000	71.529	-172.7114
6000.000000	71.478	-169.4715
6080.000000	71.473	-166.8675
6150.000000	71.501	-164.5780
6220.000000	71.571	-162.3703
6300.000000	71.708	-159.8952
6400.000000	71.981	-156.9099
6500.000000	72.322	-154.0651
6600.000000	72.729	-151.4306
6700.000000	73.199	-149.0757
6800.000000	73.727	-147.0668
6900.000000	74.319	-145.5453
7000.000000	74.966	-144.6335
7100.000000	75.648	-144.5093
7200.000000	76.341	-145.4058
7300.000000	77.012	-147.5965
7400.000000	77.607	-151.2599
7500.000000	78.077	-156.4632
7620.000000	78.410	-164.4129
7750.000000	78.425	-173.8545
7880.000000	78.095	177.7694
8000.000000	77.539	172.1847
8120.000000	76.780	168.8100
8250.000000	75.897	167.2204
8380.000000	75.054	167.2339
8500.000000	74.349	168.2509
8620.000000	73.727	169.9618
8750.000000	73.167	172.3270
8850.000000	72.824	174.3855
9000.000000	72.453	177.6717
9120.000000	72.274	-179.6435
9250.000000	72.195	-176.8173
9380.000000	72.233	-174.2226
9500.000000	72.367	-172.1385
9620.000000	72.598	-170.5170
9750.000000	72.945	-169.4721
9880.000000	73.378	-169.3987
10000.000000	73.838	-170.4610
10150.000000	74.440	-173.6090
10300.000000	74.915	-178.8992
10440.000000	75.105	174.6666
10600.000000	74.952	166.7891
10750.000000	74.480	160.3549
10900.000000	73.803	155.7000
11060.000000	72.992	152.7925
11200.000000	72.289	151.6833
11380.000000	71.500	151.5693
11500.000000	71.074	151.9678
11720.000000	70.530	152.8817
11800.000000	70.407	153.0626
12060.000000	70.245	151.9485
12200.000000	70.223	149.4405
12410.000000	69.995	142.4713
12500.000000	69.732	138.5262
12650.000000	68.967	131.5120
12800.000000	67.790	125.1844
13150.000000	64.064	117.8713
13200.000000	63.490	117.7457
13400.000000	61.228	119.0487
13600.000000	59.092	122.5637
13800.000000	57.117	127.6004
14000.000000	55.323	133.7043
14300.000000	52.956	144.1447
14500.000000	51.570	151.6371
14750.000000	50.022	161.4468
15000.000000	48.659	171.3923
15250.000000	47.480	-178.4423
15500.000000	46.484	-168.0895
15750.000000	45.672	-157.7447
16000.000000	45.052	-147.4741
16250.000000	44.842	-137.0899
16500.000000	44.913	-126.8050
16750.000000	45.157	-116.7180
17000.000000	45.565	-107.1876
17250.000000	46.165	-98.3133
17500.000000	46.945	-90.3494
17750.000000	47.868	-83.5289
18000.000000	48.910	-78.5427
18250.000000	50.025	-75.7998
18500.000000	51.032	-75.7804
18750.000000	51.669	-78.3221
19000.000000	51.902	-81.2956
19250.000000	51.917	-84.5327
19500.000000	51.654	-88.2545
19750.000000	51.148	-92.0677
