* Measurement data measured by REW V5.20.13
* Source: C:\Users\marcu\OneDrive\Desktop\audio_db\Hidizs MS3 f.Silver Foam R.txt
* Format: Comma/Tab/Space delimited data
* Dated: Jul 16, 2023 8:18:24 PM
* REW Settings:
*  C-weighting compensation: Off
*  Target level: 75.0 dB
* Note: ; Measurement imported from C:\Users\marcu\OneDrive\Desktop\audio_db\Hidizs MS3 f.Silver Foam R.txt Format: Comma/Tab/Space delimited data 54613 values loaded, 0 Hz to 20,000 Hz 
* Measurement: Hidizs MS3 f.Silver Foam R
* Smoothing: None
* Frequency Step: 1/48 octave
* Start Frequency: 1.000 Hz
*
* Freq(Hz)	SPL(dB)	Phase(degrees)
1.000000	59.537	-67.3784
1.015000	59.347	-68.3699
1.030000	59.149	-69.3578
1.044000	58.956	-70.2762
1.060000	58.724	-71.3211
1.075000	58.496	-72.2960
1.090000	58.257	-73.2659
1.106000	57.988	-74.3278
1.120000	57.737	-75.4577
1.138000	57.393	-77.1962
1.150000	57.151	-78.5071
1.172000	56.685	-81.1603
1.180000	56.509	-82.1883
1.206000	55.916	-85.6789
1.220000	55.585	-87.6077
1.241000	55.076	-90.4901
1.250000	54.854	-91.7014
1.265000	54.481	-93.6609
1.280000	54.105	-95.5167
1.315000	53.220	-99.2516
1.320000	53.094	-99.6986
1.340000	52.591	-101.2195
1.360000	52.094	-102.2525
1.380000	51.606	-102.7168
1.400000	51.132	-102.5313
1.430000	50.451	-100.8578
1.450000	50.022	-98.6939
1.475000	49.512	-94.6092
1.500000	48.970	-88.4815
1.525000	48.390	-80.4745
1.550000	47.787	-70.9045
1.575000	47.174	-60.0875
1.600000	46.565	-48.3400
1.625000	45.974	-35.9782
1.650000	45.413	-23.3183
1.675000	44.897	-10.6765
1.700000	44.439	1.6308
1.725000	44.052	13.2873
1.750000	43.751	23.9770
1.775000	43.549	33.3833
1.800000	43.458	41.1903
1.825000	43.494	47.0815
1.850000	43.679	51.0032
1.875000	44.033	53.5057
1.900000	44.535	54.7647
1.925000	45.161	54.9334
1.950000	45.889	54.1652
1.975000	46.696	52.6136
2.000000	47.560	50.4317
2.030000	48.640	47.1976
2.060000	49.730	43.5418
2.090000	50.789	39.7294
2.120000	51.781	36.0253
2.140000	52.384	33.7469
2.180000	53.400	30.0020
2.200000	53.789	28.6879
2.240000	54.423	26.3394
2.270000	54.814	24.5245
2.300000	55.141	22.6731
2.330000	55.414	20.7938
2.360000	55.640	18.8951
2.400000	55.884	16.3480
2.430000	56.035	14.4372
2.470000	56.207	11.9049
2.500000	56.327	10.0283
2.540000	56.490	7.5726
2.580000	56.668	5.1800
2.620000	56.820	2.7948
2.650000	56.912	1.0070
2.690000	57.008	-1.3658
2.720000	57.062	-3.1310
2.760000	57.113	-5.4559
2.800000	57.143	-7.7374
2.850000	57.158	-10.5103
2.900000	57.153	-13.1742
2.950000	57.134	-15.7186
3.000000	57.083	-18.2241
3.040000	57.019	-20.1942
3.070000	56.960	-21.6390
3.110000	56.869	-23.5060
3.150000	56.765	-25.2873
3.200000	56.623	-27.3635
3.250000	56.472	-29.2371
3.300000	56.318	-30.8704
3.350000	56.142	-32.3046
3.400000	55.936	-33.5764
3.450000	55.713	-34.6709
3.500000	55.487	-35.5732
3.550000	55.272	-36.2685
3.600000	55.079	-36.7419
3.650000	54.923	-36.9786
3.700000	54.801	-36.9112
3.750000	54.688	-36.4602
3.820000	54.557	-35.3670
3.870000	54.493	-34.3946
3.950000	54.465	-32.7889
4.000000	54.507	-31.9129
4.060000	54.631	-31.0813
4.120000	54.843	-30.2029
4.180000	55.124	-29.3163
4.250000	55.508	-28.4048
4.310000	55.861	-27.8430
4.370000	56.212	-27.5892
4.440000	56.611	-27.7830
4.500000	56.980	-28.3115
4.550000	57.300	-28.9557
4.620000	57.752	-30.0941
4.680000	58.127	-31.2197
4.750000	58.532	-32.6176
4.820000	58.898	-34.1331
4.870000	59.146	-35.3661
4.940000	59.475	-37.2333
5.000000	59.739	-38.9000
5.080000	60.063	-41.1090
5.150000	60.318	-42.9419
5.220000	60.543	-44.7843
5.300000	60.768	-46.9023
5.380000	60.966	-48.9581
5.450000	61.123	-50.6441
5.520000	61.268	-52.1785
5.600000	61.406	-53.8071
5.700000	61.549	-55.6602
5.800000	61.678	-57.2729
5.900000	61.813	-58.6014
6.000000	61.936	-59.6163
6.080000	62.032	-60.2520
6.150000	62.124	-60.7194
6.220000	62.228	-61.1362
6.300000	62.364	-61.5158
6.400000	62.551	-61.8083
6.500000	62.754	-62.0295
6.600000	62.975	-62.3193
6.700000	63.218	-62.6622
6.800000	63.481	-63.0240
6.900000	63.747	-63.4615
7.000000	64.006	-64.0280
7.100000	64.267	-64.7207
7.200000	64.525	-65.5023
7.300000	64.768	-66.3365
7.400000	64.992	-67.2189
7.500000	65.200	-68.1771
7.620000	65.430	-69.3483
7.750000	65.653	-70.5521
7.880000	65.845	-71.7297
8.000000	66.004	-72.7551
8.120000	66.153	-73.6711
8.250000	66.298	-74.5545
8.380000	66.435	-75.3475
8.500000	66.564	-76.0031
8.620000	66.691	-76.5721
8.750000	66.830	-77.1509
8.850000	66.941	-77.6003
9.000000	67.114	-78.2458
9.120000	67.254	-78.7780
9.250000	67.403	-79.4059
9.380000	67.552	-80.0695
9.500000	67.685	-80.7112
9.620000	67.812	-81.3862
9.750000	67.944	-82.1530
9.880000	68.060	-82.9264
10.000000	68.146	-83.6388
10.150000	68.234	-84.5325
10.300000	68.309	-85.3982
10.440000	68.367	-86.1778
10.600000	68.426	-87.0440
10.750000	68.484	-87.8295
10.900000	68.540	-88.5946
11.060000	68.601	-89.4132
11.200000	68.655	-90.1283
11.380000	68.723	-91.0601
11.500000	68.769	-91.6949
11.720000	68.848	-92.8724
11.800000	68.875	-93.3037
12.060000	68.957	-94.7101
12.200000	68.997	-95.4539
12.410000	69.056	-96.5521
12.500000	69.088	-97.0122
12.650000	69.147	-97.7647
12.800000	69.211	-98.5048
13.150000	69.361	-100.1938
13.200000	69.382	-100.4330
13.400000	69.467	-101.3870
13.600000	69.550	-102.3320
13.800000	69.630	-103.2690
14.000000	69.705	-104.1816
14.300000	69.811	-105.4961
14.500000	69.879	-106.3236
14.750000	69.963	-107.3121
15.000000	70.047	-108.2566
15.250000	70.131	-109.1819
15.500000	70.212	-110.0998
15.750000	70.289	-111.0130
16.000000	70.359	-111.9148
16.250000	70.426	-112.7848
16.500000	70.490	-113.6146
16.750000	70.549	-114.3932
17.000000	70.606	-115.1327
17.250000	70.663	-115.8461
17.500000	70.719	-116.5515
17.750000	70.773	-117.2672
18.000000	70.825	-117.9942
18.250000	70.872	-118.7332
18.500000	70.913	-119.4710
18.750000	70.949	-120.2000
19.000000	70.981	-120.9132
19.250000	71.011	-121.6083
19.500000	71.039	-122.2896
19.750000	71.068	-122.9609
20.000000	71.098	-123.6297
20.299999	71.134	-124.4338
20.600000	71.171	-125.2424
20.900000	71.206	-126.0543
21.200001	71.237	-126.8633
21.400000	71.256	-127.3937
21.799999	71.290	-128.4147
22.000000	71.305	-128.8969
22.400000	71.337	-129.7941
22.700001	71.365	-130.4184
23.000000	71.399	-131.0240
23.299999	71.436	-131.6351
23.600000	71.473	-132.2611
24.000000	71.517	-133.1098
24.299999	71.544	-133.7310
24.700001	71.572	-134.5057
25.000000	71.592	-135.0437
25.400000	71.622	-135.7315
25.799999	71.654	-136.4316
26.200001	71.679	-137.1592
26.500000	71.691	-137.7034
26.900000	71.700	-138.3917
27.200001	71.706	-138.8689
27.600000	71.717	-139.4710
28.000000	71.734	-140.0849
28.500000	71.757	-140.9242
29.000000	71.768	-141.8141
29.500000	71.766	-142.6668
30.000000	71.761	-143.4324
30.400000	71.762	-144.0000
30.700001	71.766	-144.4175
31.100000	71.773	-144.9748
31.500000	71.781	-145.5284
32.000000	71.791	-146.1994
32.500000	71.801	-146.8458
33.000000	71.814	-147.4908
33.500000	71.824	-148.1484
34.000000	71.827	-148.7991
34.500000	71.824	-149.4111
35.000000	71.821	-149.9766
35.500000	71.819	-150.5148
36.000000	71.818	-151.0450
36.500000	71.818	-151.5735
37.000000	71.819	-152.1069
37.500000	71.819	-152.6546
38.200001	71.812	-153.4238
38.700001	71.803	-153.9313
39.500000	71.798	-154.6597
40.000000	71.802	-155.1263
40.599998	71.809	-155.7361
41.200001	71.806	-156.3548
41.799999	71.796	-156.9296
42.500000	71.784	-157.5355
43.099998	71.774	-158.0119
43.700001	71.769	-158.4613
44.400002	71.769	-158.9936
45.000000	71.769	-159.4862
45.500000	71.765	-159.9060
46.200001	71.753	-160.4565
46.799999	71.745	-160.8868
47.500000	71.740	-161.3932
48.200001	71.733	-161.9243
48.700001	71.725	-162.2933
49.400002	71.713	-162.7759
50.000000	71.705	-163.1819
50.799999	71.694	-163.7269
51.500000	71.683	-164.1802
52.200001	71.675	-164.6181
53.000000	71.667	-165.1264
53.799999	71.658	-165.6289
54.500000	71.650	-166.0621
55.200001	71.639	-166.4861
56.000000	71.624	-166.9305
57.000000	71.612	-167.4473
58.000000	71.601	-167.9792
59.000000	71.587	-168.5240
60.000000	71.568	-169.0608
60.799999	71.552	-169.4634
61.500000	71.539	-169.8091
62.200001	71.529	-170.1574
63.000000	71.517	-170.5584
64.000000	71.500	-171.0670
65.000000	71.478	-171.5485
66.000000	71.457	-172.0038
67.000000	71.436	-172.4382
68.000000	71.417	-172.8439
69.000000	71.402	-173.2659
70.000000	71.383	-173.7055
71.000000	71.363	-174.1423
72.000000	71.341	-174.5766
73.000000	71.317	-174.9825
74.000000	71.296	-175.3629
75.000000	71.274	-175.7431
76.199997	71.250	-176.1358
77.500000	71.227	-176.6051
78.800003	71.203	-177.0209
80.000000	71.182	-177.4615
81.199997	71.157	-177.8816
82.500000	71.126	-178.3460
83.800003	71.096	-178.7346
85.000000	71.076	-179.1186
86.199997	71.053	-179.4910
87.500000	71.029	-179.8711
88.500000	71.009	179.8472
90.000000	70.980	179.4322
91.199997	70.954	179.0984
92.500000	70.924	178.7507
93.800003	70.896	178.4156
95.000000	70.872	178.1083
96.199997	70.850	177.8045
97.500000	70.823	177.4846
98.800003	70.797	177.1722
100.000000	70.771	176.8704
101.500000	70.735	176.5109
103.000000	70.703	176.1727
104.400002	70.675	175.8412
106.000000	70.644	175.5045
107.500000	70.619	175.1893
109.000000	70.588	174.8733
110.599998	70.553	174.5600
112.000000	70.520	174.2907
113.800003	70.482	173.9568
115.000000	70.459	173.7338
117.199997	70.416	173.3220
118.000000	70.400	173.1808
120.599998	70.345	172.7539
122.000000	70.317	172.5211
124.099998	70.268	172.1671
125.000000	70.250	172.0263
126.500000	70.224	171.8022
128.000000	70.202	171.5745
131.500000	70.145	171.0558
132.000000	70.136	170.9883
134.000000	70.100	170.7246
136.000000	70.063	170.4653
138.000000	70.032	170.2070
140.000000	70.000	169.9384
143.000000	69.951	169.5859
145.000000	69.916	169.3589
147.500000	69.872	169.0756
150.000000	69.830	168.8040
152.500000	69.789	168.5438
155.000000	69.744	168.3286
157.500000	69.702	168.1365
160.000000	69.658	167.9088
162.500000	69.605	167.6772
165.000000	69.550	167.4657
167.500000	69.494	167.2932
170.000000	69.437	167.1376
172.500000	69.379	166.9529
175.000000	69.323	166.7752
177.500000	69.274	166.6066
180.000000	69.225	166.4661
182.500000	69.168	166.3575
185.000000	69.112	166.2637
187.500000	69.059	166.1386
190.000000	69.009	166.0009
192.500000	68.958	165.8785
195.000000	68.904	165.7892
197.500000	68.853	165.7041
200.000000	68.805	165.6126
203.000000	68.753	165.5159
206.000000	68.699	165.4438
209.000000	68.643	165.3687
212.000000	68.589	165.2920
214.000000	68.555	165.2453
218.000000	68.487	165.2037
220.000000	68.453	165.1891
224.000000	68.382	165.1268
227.000000	68.335	165.0924
230.000000	68.291	165.0706
233.000000	68.243	165.0467
236.000000	68.191	165.0224
240.000000	68.124	165.0169
243.000000	68.078	165.0223
247.000000	68.020	165.0367
250.000000	67.975	165.0689
254.000000	67.911	165.1443
258.000000	67.847	165.1833
262.000000	67.788	165.2268
265.000000	67.745	165.2909
269.000000	67.688	165.3676
272.000000	67.649	165.4020
276.000000	67.597	165.4782
280.000000	67.542	165.5885
285.000000	67.473	165.7235
290.000000	67.412	165.8296
295.000000	67.350	165.9444
300.000000	67.286	166.1416
304.000000	67.233	166.3005
307.000000	67.191	166.3938
311.000000	67.141	166.5358
315.000000	67.094	166.7047
320.000000	67.033	166.9156
325.000000	66.972	167.0902
330.000000	66.914	167.3033
335.000000	66.860	167.5314
340.000000	66.814	167.7209
345.000000	66.764	167.9161
350.000000	66.704	168.1665
355.000000	66.649	168.4296
360.000000	66.603	168.6840
365.000000	66.556	168.9277
370.000000	66.507	169.1899
375.000000	66.458	169.4270
382.000000	66.390	169.7657
387.000000	66.338	170.0384
395.000000	66.272	170.5049
400.000000	66.232	170.8242
406.000000	66.173	171.1545
412.000000	66.119	171.4490
418.000000	66.074	171.7703
425.000000	66.019	172.2024
431.000000	65.973	172.5900
437.000000	65.928	172.9704
444.000000	65.875	173.4024
450.000000	65.830	173.7377
455.000000	65.796	174.0238
462.000000	65.750	174.4871
468.000000	65.707	174.9128
475.000000	65.657	175.4022
482.000000	65.612	175.9016
487.000000	65.580	176.2365
494.000000	65.536	176.6868
500.000000	65.499	177.0817
508.000000	65.458	177.6385
515.000000	65.420	178.1452
522.000000	65.383	178.6609
530.000000	65.341	179.2845
538.000000	65.304	179.8680
545.000000	65.274	-179.6420
552.000000	65.243	-179.1573
560.000000	65.213	-178.5541
570.000000	65.171	-177.7897
580.000000	65.129	-176.9952
590.000000	65.094	-176.1597
600.000000	65.061	-175.4171
608.000000	65.034	-174.8257
615.000000	65.014	-174.2598
622.000000	64.995	-173.6602
630.000000	64.975	-173.0084
640.000000	64.953	-172.1600
650.000000	64.929	-171.3295
660.000000	64.916	-170.5391
670.000000	64.902	-169.7004
680.000000	64.884	-168.8132
690.000000	64.874	-167.9241
700.000000	64.868	-167.0526
710.000000	64.864	-166.1796
720.000000	64.863	-165.3226
730.000000	64.870	-164.4454
740.000000	64.874	-163.5464
750.000000	64.875	-162.6117
762.000000	64.881	-161.4781
775.000000	64.900	-160.2773
788.000000	64.924	-159.0850
800.000000	64.949	-157.9922
812.000000	64.969	-156.8437
825.000000	64.991	-155.5071
838.000000	65.022	-154.1476
850.000000	65.072	-152.9484
862.000000	65.126	-151.7743
875.000000	65.195	-150.4780
885.000000	65.258	-149.4689
900.000000	65.354	-147.9656
912.000000	65.439	-146.8178
925.000000	65.542	-145.6520
938.000000	65.656	-144.4975
950.000000	65.766	-143.4468
962.000000	65.881	-142.4398
975.000000	66.017	-141.4002
988.000000	66.158	-140.4267
1000.000000	66.296	-139.5947
1015.000000	66.483	-138.6143
1030.000000	66.674	-137.7042
1044.000000	66.859	-136.9191
1060.000000	67.070	-136.1773
1075.000000	67.269	-135.5745
1090.000000	67.465	-135.0778
1106.000000	67.667	-134.6221
1120.000000	67.833	-134.2876
1138.000000	68.033	-133.9698
1150.000000	68.157	-133.7863
1172.000000	68.362	-133.4505
1180.000000	68.434	-133.2884
1206.000000	68.667	-132.6328
1220.000000	68.803	-132.2601
1241.000000	69.012	-131.7860
1250.000000	69.098	-131.6213
1265.000000	69.227	-131.3932
1280.000000	69.345	-131.2141
1315.000000	69.601	-130.8821
1320.000000	69.635	-130.8383
1340.000000	69.770	-130.6718
1360.000000	69.901	-130.5100
1380.000000	70.034	-130.3524
1400.000000	70.166	-130.2249
1430.000000	70.356	-130.0484
1450.000000	70.479	-129.8965
1475.000000	70.630	-129.7270
1500.000000	70.789	-129.6202
1525.000000	70.952	-129.5319
1550.000000	71.112	-129.4646
1575.000000	71.271	-129.4349
1600.000000	71.436	-129.4226
1625.000000	71.630	-129.4772
1650.000000	71.833	-129.6093
1675.000000	72.034	-129.7806
1700.000000	72.232	-130.0099
1725.000000	72.426	-130.3172
1750.000000	72.621	-130.6870
1775.000000	72.813	-131.1483
1800.000000	73.002	-131.7050
1825.000000	73.184	-132.3336
1850.000000	73.360	-133.0513
1875.000000	73.526	-133.8705
1900.000000	73.681	-134.7724
1925.000000	73.824	-135.7377
1950.000000	73.957	-136.8093
1975.000000	74.081	-137.9826
2000.000000	74.192	-139.2246
2030.000000	74.297	-140.7786
2060.000000	74.376	-142.4080
2090.000000	74.434	-144.0910
2120.000000	74.472	-145.8162
2140.000000	74.487	-146.9640
2180.000000	74.490	-149.2477
2200.000000	74.477	-150.3604
2240.000000	74.425	-152.4832
2270.000000	74.365	-153.9785
2300.000000	74.295	-155.3689
2330.000000	74.215	-156.6650
2360.000000	74.123	-157.8348
2400.000000	73.983	-159.1797
2430.000000	73.867	-160.0288
2470.000000	73.714	-160.9697
2500.000000	73.600	-161.5525
2540.000000	73.452	-162.1431
2580.000000	73.303	-162.5400
2620.000000	73.153	-162.7354
2650.000000	73.044	-162.7737
2690.000000	72.909	-162.7040
2720.000000	72.817	-162.5511
2760.000000	72.707	-162.2655
2800.000000	72.609	-161.8693
2850.000000	72.499	-161.2119
2900.000000	72.410	-160.4365
2950.000000	72.351	-159.5679
3000.000000	72.319	-158.6219
3040.000000	72.311	-157.8090
3070.000000	72.314	-157.1920
3110.000000	72.332	-156.3371
3150.000000	72.361	-155.4621
3200.000000	72.418	-154.3532
3250.000000	72.502	-153.2659
3300.000000	72.609	-152.2019
3350.000000	72.738	-151.1488
3400.000000	72.890	-150.1608
3450.000000	73.067	-149.2368
3500.000000	73.266	-148.4092
3550.000000	73.485	-147.6721
3600.000000	73.726	-147.0569
3650.000000	73.990	-146.6176
3700.000000	74.268	-146.3507
3750.000000	74.554	-146.2871
3820.000000	74.967	-146.5949
3870.000000	75.271	-147.1794
3950.000000	75.758	-148.7890
4000.000000	76.050	-150.2808
4060.000000	76.377	-152.5893
4120.000000	76.672	-155.5192
4180.000000	76.918	-159.0290
4250.000000	77.121	-163.7440
4310.000000	77.206	-168.1624
4370.000000	77.203	-172.7142
4440.000000	77.090	-177.8840
4500.000000	76.907	178.0751
4550.000000	76.699	175.1120
4620.000000	76.335	171.7149
4680.000000	75.975	169.5267
4750.000000	75.522	167.7585
4820.000000	75.050	166.7876
4870.000000	74.714	166.4890
4940.000000	74.262	166.5346
5000.000000	73.887	166.9537
5080.000000	73.407	167.9166
5150.000000	73.017	169.1048
5220.000000	72.666	170.5281
5300.000000	72.312	172.3912
5380.000000	72.005	174.4549
5450.000000	71.775	176.3771
5520.000000	71.579	178.4041
5600.000000	71.397	-179.1896
5700.000000	71.237	-176.1143
5800.000000	71.143	-172.9998
5900.000000	71.107	-169.8338
6000.000000	71.134	-166.6907
6080.000000	71.205	-164.2146
6150.000000	71.300	-162.0928
6220.000000	71.428	-160.0381
6300.000000	71.626	-157.7732
6400.000000	71.982	-155.1266
6500.000000	72.416	-152.7397
6600.000000	72.912	-150.7098
6700.000000	73.468	-149.1332
6800.000000	74.077	-148.1424
6900.000000	74.726	-147.9102
7000.000000	75.390	-148.6310
7100.000000	76.030	-150.5097
7200.000000	76.605	-153.7342
7300.000000	77.074	-158.4321
7400.000000	77.387	-164.4385
7500.000000	77.499	-171.2071
7620.000000	77.356	-179.1931
7750.000000	76.908	173.7875
7880.000000	76.251	169.1995
8000.000000	75.537	167.0156
8120.000000	74.749	166.3873
8250.000000	73.929	167.0258
8380.000000	73.195	168.6560
8500.000000	72.611	170.7667
8620.000000	72.131	173.2624
8750.000000	71.730	176.2518
8850.000000	71.501	178.6608
9000.000000	71.287	-177.6752
9120.000000	71.233	-174.8324
9250.000000	71.290	-171.9433
9380.000000	71.468	-169.4137
9500.000000	71.733	-167.5176
9620.000000	72.094	-166.2376
9750.000000	72.574	-165.7662
9880.000000	73.125	-166.5711
10000.000000	73.658	-168.7297
10150.000000	74.270	-173.5872
10300.000000	74.644	179.3645
10440.000000	74.662	171.7769
10600.000000	74.288	163.7300
10750.000000	73.677	158.0619
10900.000000	72.974	154.4082
11060.000000	72.254	152.1440
11200.000000	71.701	150.9395
11380.000000	71.119	149.7374
11500.000000	70.809	148.8581
11720.000000	70.355	146.4168
11800.000000	70.203	145.0732
12060.000000	69.585	138.3944
12200.000000	69.054	133.5399
12410.000000	67.818	125.8234
12500.000000	67.108	122.8484
12650.000000	65.709	118.8939
12800.000000	64.132	116.5304
13150.000000	60.240	117.0435
13200.000000	59.689	117.6918
13400.000000	57.556	121.3535
13600.000000	55.558	126.4100
13800.000000	53.657	132.6426
14000.000000	51.878	139.7887
14300.000000	49.474	151.9884
14500.000000	48.027	160.9650
14750.000000	46.426	173.0869
15000.000000	45.060	-173.9407
15250.000000	44.032	-160.1516
15500.000000	43.481	-146.9851
15750.000000	43.069	-135.8400
16000.000000	42.766	-124.4598
16250.000000	42.906	-112.8364
16500.000000	43.359	-102.2060
16750.000000	43.938	-92.2801
17000.000000	44.601	-82.9864
17250.000000	45.424	-73.9724
17500.000000	46.474	-65.3334
17750.000000	47.798	-58.1377
18000.000000	49.279	-53.3120
18250.000000	50.858	-51.3526
18500.000000	52.324	-52.7759
18750.000000	53.486	-57.4025
19000.000000	54.162	-64.5024
19250.000000	54.255	-72.5857
19500.000000	53.899	-80.1530
19750.000000	53.297	-87.1375
