* Measurement data measured by REW V5.20.13
* Source: EXCL: Microphone (USB Sound Device        ), MICROPHONE (Master Volume), L, volume: 0.130
* Format: 256k Log Swept Sine, 1 sweep at -6.0 dBFS with no timing reference
* Dated: Oct 28, 2023 10:13:01 AM
* REW Settings:
*  C-weighting compensation: Off
*  Target level: 75.0 dB
* Note: ; 
* Measurement: OH10 Foam L
* Smoothing: None
* Frequency Step: 1/48 octave
* Start Frequency: 1.000 Hz
*
* Freq(Hz)	SPL(dB)	Phase(degrees)
1.000000	81.289	-133.9738
1.015000	81.272	-134.7775
1.030000	81.249	-135.5695
1.044000	81.222	-136.2983
1.060000	81.185	-137.1194
1.075000	81.145	-137.8778
1.090000	81.099	-138.6256
1.106000	81.044	-139.4202
1.120000	80.993	-140.1584
1.138000	80.925	-141.1686
1.150000	80.877	-141.8731
1.172000	80.783	-143.2120
1.180000	80.747	-143.7095
1.206000	80.621	-145.3433
1.220000	80.546	-146.2217
1.241000	80.425	-147.5176
1.250000	80.369	-148.0597
1.265000	80.270	-148.9382
1.280000	80.164	-149.7775
1.315000	79.886	-151.5329
1.320000	79.843	-151.7555
1.340000	79.659	-152.5623
1.360000	79.457	-153.2189
1.380000	79.237	-153.7039
1.400000	78.997	-153.9958
1.430000	78.598	-154.0245
1.450000	78.303	-153.7395
1.475000	77.894	-153.0119
1.500000	77.372	-151.9285
1.525000	76.743	-150.5264
1.550000	76.029	-148.8285
1.575000	75.254	-146.8577
1.600000	74.440	-144.6366
1.625000	73.612	-142.1883
1.650000	72.791	-139.5356
1.675000	72.001	-136.7012
1.700000	71.265	-133.7080
1.725000	70.606	-130.5789
1.750000	70.047	-127.3368
1.775000	69.612	-124.0043
1.800000	69.323	-120.6045
1.825000	69.204	-117.1601
1.850000	69.271	-113.5337
1.875000	69.510	-109.4037
1.900000	69.900	-104.8485
1.925000	70.420	-99.9631
1.950000	71.048	-94.8429
1.975000	71.765	-89.5830
2.000000	72.549	-84.2788
2.030000	73.548	-77.9892
2.060000	74.579	-71.9373
2.090000	75.603	-66.2879
2.120000	76.586	-61.2053
2.140000	77.201	-58.2131
2.180000	78.283	-53.3992
2.200000	78.730	-51.6741
2.240000	79.543	-49.4834
2.270000	80.122	-48.7653
2.300000	80.676	-48.7162
2.330000	81.206	-49.2247
2.360000	81.712	-50.1792
2.400000	82.351	-51.9532
2.430000	82.805	-53.5153
2.470000	83.379	-55.6950
2.500000	83.786	-57.2579
2.540000	84.299	-59.0342
2.580000	84.779	-60.2947
2.620000	85.212	-61.5329
2.650000	85.506	-62.5267
2.690000	85.863	-63.9189
2.720000	86.106	-65.0002
2.760000	86.404	-66.4723
2.800000	86.676	-67.9567
2.850000	86.988	-69.7928
2.900000	87.280	-71.5631
2.950000	87.560	-73.2340
3.000000	87.807	-74.8898
3.040000	87.980	-76.2107
3.070000	88.096	-77.1929
3.110000	88.235	-78.4837
3.150000	88.359	-79.7442
3.200000	88.497	-81.2626
3.250000	88.619	-82.7002
3.300000	88.731	-84.0384
3.350000	88.824	-85.3018
3.400000	88.893	-86.5089
3.450000	88.942	-87.6487
3.500000	88.977	-88.7104
3.550000	89.001	-89.6831
3.600000	89.020	-90.5559
3.650000	89.038	-91.3180
3.700000	89.052	-91.9608
3.750000	89.052	-92.4892
3.820000	89.037	-93.0558
3.870000	89.022	-93.3502
3.950000	89.005	-93.6572
4.000000	89.006	-93.7619
4.060000	89.025	-93.7956
4.120000	89.051	-93.6553
4.180000	89.084	-93.3801
4.250000	89.135	-92.9643
4.310000	89.193	-92.5914
4.370000	89.268	-92.2631
4.440000	89.380	-91.9572
4.500000	89.499	-91.6682
4.550000	89.610	-91.4255
4.620000	89.779	-91.1234
4.680000	89.930	-90.9365
4.750000	90.106	-90.8512
4.820000	90.283	-90.9301
4.870000	90.418	-91.0636
4.940000	90.612	-91.3443
5.000000	90.776	-91.6601
5.080000	90.985	-92.1696
5.150000	91.150	-92.6850
5.220000	91.305	-93.3114
5.300000	91.471	-94.1405
5.380000	91.623	-95.0330
5.450000	91.742	-95.8187
5.520000	91.847	-96.5759
5.600000	91.947	-97.4724
5.700000	92.049	-98.6138
5.800000	92.131	-99.6979
5.900000	92.200	-100.6492
6.000000	92.246	-101.5040
6.080000	92.273	-102.1220
6.150000	92.295	-102.6080
6.220000	92.320	-103.0374
6.300000	92.350	-103.4431
6.400000	92.386	-103.8323
6.500000	92.425	-104.1421
6.600000	92.479	-104.4277
6.700000	92.548	-104.6610
6.800000	92.628	-104.8446
6.900000	92.717	-105.0451
7.000000	92.814	-105.3199
7.100000	92.924	-105.6380
7.200000	93.039	-106.0004
7.300000	93.154	-106.4232
7.400000	93.263	-106.9244
7.500000	93.372	-107.5001
7.620000	93.496	-108.2463
7.750000	93.614	-109.0789
7.880000	93.715	-109.9695
8.000000	93.798	-110.7883
8.120000	93.868	-111.5490
8.250000	93.930	-112.3364
8.380000	93.984	-113.0625
8.500000	94.033	-113.6509
8.620000	94.077	-114.1668
8.750000	94.127	-114.6700
8.850000	94.170	-115.0272
9.000000	94.240	-115.4948
9.120000	94.300	-115.8529
9.250000	94.370	-116.2555
9.380000	94.447	-116.6561
9.500000	94.518	-117.0431
9.620000	94.590	-117.4609
9.750000	94.670	-117.9386
9.880000	94.737	-118.4278
10.000000	94.780	-118.8902
10.150000	94.817	-119.4798
10.300000	94.843	-120.0455
10.440000	94.855	-120.5532
10.600000	94.861	-121.1019
10.750000	94.867	-121.5718
10.900000	94.870	-122.0070
11.060000	94.875	-122.4468
11.200000	94.881	-122.8070
11.380000	94.888	-123.2625
11.500000	94.894	-123.5662
11.720000	94.903	-124.1234
11.800000	94.905	-124.3297
12.060000	94.909	-125.0047
12.200000	94.905	-125.3621
12.410000	94.897	-125.8883
12.500000	94.899	-126.1047
12.650000	94.910	-126.4536
12.800000	94.924	-126.7914
13.150000	94.956	-127.5403
13.200000	94.961	-127.6470
13.400000	94.980	-128.0728
13.600000	94.998	-128.5076
13.800000	95.013	-128.9573
14.000000	95.026	-129.4127
14.300000	95.037	-130.0987
14.500000	95.041	-130.5413
14.750000	95.043	-131.0722
15.000000	95.046	-131.5774
15.250000	95.050	-132.0702
15.500000	95.057	-132.5665
15.750000	95.065	-133.0731
16.000000	95.075	-133.5941
16.250000	95.087	-134.1151
16.500000	95.100	-134.6273
16.750000	95.112	-135.1168
17.000000	95.124	-135.5823
17.250000	95.137	-136.0281
17.500000	95.153	-136.4619
17.750000	95.171	-136.8939
18.000000	95.190	-137.3245
18.250000	95.207	-137.7538
18.500000	95.224	-138.1744
18.750000	95.240	-138.5840
19.000000	95.255	-138.9803
19.250000	95.270	-139.3661
19.500000	95.284	-139.7436
19.750000	95.297	-140.1137
20.000000	95.308	-140.4736
20.299999	95.321	-140.8842
20.600000	95.333	-141.2673
20.900000	95.345	-141.6250
21.200001	95.360	-141.9706
21.400000	95.370	-142.2059
21.799999	95.392	-142.6993
22.000000	95.401	-142.9582
22.400000	95.412	-143.4858
22.700001	95.416	-143.8696
23.000000	95.418	-144.2300
23.299999	95.421	-144.5711
23.600000	95.426	-144.9045
24.000000	95.435	-145.3549
24.299999	95.442	-145.7022
24.700001	95.451	-146.1693
25.000000	95.458	-146.5138
25.400000	95.468	-146.9613
25.799999	95.482	-147.4037
26.200001	95.497	-147.8499
26.500000	95.508	-148.1861
26.900000	95.523	-148.6303
27.200001	95.535	-148.9577
27.600000	95.550	-149.3883
28.000000	95.565	-149.8155
28.500000	95.580	-150.3393
29.000000	95.593	-150.8358
29.500000	95.606	-151.3019
30.000000	95.618	-151.7514
30.400000	95.628	-152.1050
30.700001	95.635	-152.3652
31.100000	95.645	-152.7050
31.500000	95.655	-153.0420
32.000000	95.669	-153.4724
32.500000	95.682	-153.9168
33.000000	95.693	-154.3614
33.500000	95.702	-154.7939
34.000000	95.713	-155.2160
34.500000	95.725	-155.6360
35.000000	95.738	-156.0580
35.500000	95.750	-156.4820
36.000000	95.760	-156.9020
36.500000	95.769	-157.3068
37.000000	95.779	-157.6917
37.500000	95.791	-158.0697
38.200001	95.807	-158.6132
38.700001	95.816	-158.9986
39.500000	95.829	-159.5711
40.000000	95.842	-159.9262
40.599998	95.858	-160.3799
41.200001	95.869	-160.8374
41.799999	95.877	-161.2581
42.500000	95.891	-161.7147
43.099998	95.907	-162.1202
43.700001	95.921	-162.5436
44.400002	95.932	-163.0273
45.000000	95.942	-163.4218
45.500000	95.950	-163.7480
46.200001	95.960	-164.2105
46.799999	95.967	-164.6003
47.500000	95.974	-165.0377
48.200001	95.983	-165.4687
48.700001	95.990	-165.7771
49.400002	96.000	-166.2107
50.000000	96.008	-166.5857
50.799999	96.017	-167.0781
51.500000	96.025	-167.4902
52.200001	96.033	-167.8953
53.000000	96.041	-168.3566
53.799999	96.047	-168.8042
54.500000	96.052	-169.1838
55.200001	96.058	-169.5694
56.000000	96.061	-170.0236
57.000000	96.063	-170.5481
58.000000	96.074	-171.1009
59.000000	96.069	-171.6940
60.000000	96.064	-172.1393
60.799999	96.073	-172.5158
61.500000	96.076	-172.8831
62.200001	96.075	-173.2222
63.000000	96.076	-173.5891
64.000000	96.074	-174.0629
65.000000	96.069	-174.5229
66.000000	96.064	-174.9902
67.000000	96.055	-175.4415
68.000000	96.048	-175.8800
69.000000	96.039	-176.3335
70.000000	96.030	-176.7473
71.000000	96.023	-177.1758
72.000000	96.013	-177.5964
73.000000	96.003	-178.0108
74.000000	95.989	-178.4128
75.000000	95.977	-178.7827
76.199997	95.960	-179.2433
77.500000	95.947	-179.6876
78.800003	95.930	179.8019
80.000000	95.911	179.3887
81.199997	95.895	178.9784
82.500000	95.879	178.5292
83.800003	95.860	178.0870
85.000000	95.841	177.6784
86.199997	95.817	177.2870
87.500000	95.794	176.8998
88.500000	95.780	176.5829
90.000000	95.749	176.1085
91.199997	95.731	175.7632
92.500000	95.704	175.3727
93.800003	95.681	175.0305
95.000000	95.658	174.6988
96.199997	95.634	174.3890
97.500000	95.607	174.0630
98.800003	95.582	173.7485
100.000000	95.559	173.4666
101.500000	95.532	173.0977
103.000000	95.501	172.7209
104.400002	95.468	172.3848
106.000000	95.434	172.0275
107.500000	95.403	171.6569
109.000000	95.368	171.3125
110.599998	95.335	170.9832
112.000000	95.305	170.7048
113.800003	95.266	170.3626
115.000000	95.241	170.1584
117.199997	95.188	169.7699
118.000000	95.171	169.6465
120.599998	95.112	169.1943
122.000000	95.079	168.9363
124.099998	95.029	168.6098
125.000000	95.008	168.4720
126.500000	94.980	168.2355
128.000000	94.948	168.0089
131.500000	94.879	167.5203
132.000000	94.869	167.4655
134.000000	94.835	167.1927
136.000000	94.798	166.9593
138.000000	94.756	166.7063
140.000000	94.717	166.4843
143.000000	94.656	166.1780
145.000000	94.615	165.9705
147.500000	94.566	165.7321
150.000000	94.518	165.4735
152.500000	94.470	165.2891
155.000000	94.420	165.0849
157.500000	94.371	164.9107
160.000000	94.325	164.7253
162.500000	94.256	164.5419
165.000000	94.197	164.3548
167.500000	94.138	164.2184
170.000000	94.083	164.1115
172.500000	94.020	163.9794
175.000000	93.960	163.8511
177.500000	93.896	163.7439
180.000000	93.834	163.6680
182.500000	93.773	163.5868
185.000000	93.720	163.5266
187.500000	93.666	163.4571
190.000000	93.608	163.4061
192.500000	93.547	163.3809
195.000000	93.495	163.2926
197.500000	93.445	163.2063
200.000000	93.393	163.1819
203.000000	93.338	163.1494
206.000000	93.275	163.1133
209.000000	93.216	163.0736
212.000000	93.162	163.1104
214.000000	93.124	163.1422
218.000000	93.055	163.1626
220.000000	93.015	163.1688
224.000000	92.934	163.2126
227.000000	92.881	163.2551
230.000000	92.833	163.2900
233.000000	92.783	163.3667
236.000000	92.739	163.3861
240.000000	92.672	163.4574
243.000000	92.630	163.5340
247.000000	92.559	163.6291
250.000000	92.507	163.7247
254.000000	92.457	163.8214
258.000000	92.406	163.9317
262.000000	92.338	164.0919
265.000000	92.290	164.2117
269.000000	92.231	164.3541
272.000000	92.189	164.5159
276.000000	92.139	164.6485
280.000000	92.085	164.7911
285.000000	92.033	164.9977
290.000000	91.956	165.2397
295.000000	91.902	165.4472
300.000000	91.845	165.6721
304.000000	91.806	165.8313
307.000000	91.777	165.9425
311.000000	91.724	166.2104
315.000000	91.671	166.3678
320.000000	91.620	166.6283
325.000000	91.568	166.8743
330.000000	91.519	167.1827
335.000000	91.456	167.3929
340.000000	91.399	167.7298
345.000000	91.347	168.0305
350.000000	91.305	168.2858
355.000000	91.260	168.5734
360.000000	91.206	168.8814
365.000000	91.159	169.2287
370.000000	91.110	169.5514
375.000000	91.064	169.8528
382.000000	91.009	170.3749
387.000000	90.964	170.7235
395.000000	90.896	171.3329
400.000000	90.856	171.6854
406.000000	90.830	172.1695
412.000000	90.793	172.6362
418.000000	90.754	173.1245
425.000000	90.721	173.6127
431.000000	90.706	174.0759
437.000000	90.680	174.4724
444.000000	90.655	174.9104
450.000000	90.630	175.2689
455.000000	90.613	175.6030
462.000000	90.579	176.0083
468.000000	90.553	176.4108
475.000000	90.529	176.8963
482.000000	90.486	177.3148
487.000000	90.466	177.6337
494.000000	90.434	178.0562
500.000000	90.417	178.4750
508.000000	90.383	179.0309
515.000000	90.364	179.5090
522.000000	90.337	179.9915
530.000000	90.304	-179.4795
538.000000	90.280	-178.8730
545.000000	90.266	-178.3585
552.000000	90.247	-177.8555
560.000000	90.227	-177.2842
570.000000	90.195	-176.6134
580.000000	90.173	-175.8611
590.000000	90.157	-175.0634
600.000000	90.137	-174.2919
608.000000	90.126	-173.7357
615.000000	90.113	-173.2552
622.000000	90.102	-172.7086
630.000000	90.102	-172.0764
640.000000	90.091	-171.2845
650.000000	90.088	-170.5592
660.000000	90.083	-169.7694
670.000000	90.089	-168.9694
680.000000	90.091	-168.2298
690.000000	90.089	-167.4200
700.000000	90.096	-166.6251
710.000000	90.104	-165.8988
720.000000	90.114	-165.0543
730.000000	90.125	-164.2308
740.000000	90.145	-163.4172
750.000000	90.162	-162.6537
762.000000	90.189	-161.7034
775.000000	90.222	-160.6332
788.000000	90.262	-159.5753
800.000000	90.293	-158.6224
812.000000	90.334	-157.6920
825.000000	90.377	-156.6530
838.000000	90.421	-155.5973
850.000000	90.463	-154.6585
862.000000	90.517	-153.7136
875.000000	90.572	-152.7244
885.000000	90.624	-151.9675
900.000000	90.700	-150.8265
912.000000	90.767	-149.9396
925.000000	90.846	-149.0081
938.000000	90.930	-148.1140
950.000000	91.016	-147.2636
962.000000	91.100	-146.5002
975.000000	91.193	-145.7149
988.000000	91.295	-144.8923
1000.000000	91.396	-144.2795
1015.000000	91.518	-143.3608
1030.000000	91.650	-142.6070
1044.000000	91.777	-141.9296
1060.000000	91.925	-141.1766
1075.000000	92.058	-140.5349
1090.000000	92.201	-139.9320
1106.000000	92.344	-139.3596
1120.000000	92.470	-138.8575
1138.000000	92.629	-138.3004
1150.000000	92.729	-137.9116
1172.000000	92.921	-137.3380
1180.000000	92.986	-137.1356
1206.000000	93.191	-136.5748
1220.000000	93.297	-136.2130
1241.000000	93.453	-135.7515
1250.000000	93.515	-135.5625
1265.000000	93.597	-135.2928
1280.000000	93.674	-135.0173
1315.000000	93.844	-134.3694
1320.000000	93.876	-134.2760
1340.000000	93.971	-133.9150
1360.000000	94.068	-133.6169
1380.000000	94.156	-133.2593
1400.000000	94.242	-132.9390
1430.000000	94.370	-132.4162
1450.000000	94.457	-132.1097
1475.000000	94.563	-131.7107
1500.000000	94.662	-131.3092
1525.000000	94.768	-130.9113
1550.000000	94.876	-130.5139
1575.000000	94.983	-130.2045
1600.000000	95.093	-129.8688
1625.000000	95.234	-129.5526
1650.000000	95.380	-129.2285
1675.000000	95.522	-128.9450
1700.000000	95.667	-128.6555
1725.000000	95.808	-128.4066
1750.000000	95.952	-128.1842
1775.000000	96.101	-127.9855
1800.000000	96.248	-127.8282
1825.000000	96.395	-127.6954
1850.000000	96.543	-127.5853
1875.000000	96.696	-127.5470
1900.000000	96.845	-127.5643
1925.000000	96.992	-127.5990
1950.000000	97.143	-127.6555
1975.000000	97.294	-127.7985
2000.000000	97.445	-128.0400
2030.000000	97.630	-128.3174
2060.000000	97.810	-128.6828
2090.000000	97.988	-129.1534
2120.000000	98.167	-129.7059
2140.000000	98.288	-130.1169
2180.000000	98.524	-131.0710
2200.000000	98.641	-131.6075
2240.000000	98.869	-132.7980
2270.000000	99.030	-133.7857
2300.000000	99.187	-134.8553
2330.000000	99.330	-135.9820
2360.000000	99.464	-137.1715
2400.000000	99.626	-138.8251
2430.000000	99.733	-140.1273
2470.000000	99.855	-141.9296
2500.000000	99.933	-143.3296
2540.000000	100.017	-145.2443
2580.000000	100.079	-147.2168
2620.000000	100.126	-149.1979
2650.000000	100.148	-150.6926
2690.000000	100.164	-152.7028
2720.000000	100.165	-154.1437
2760.000000	100.157	-156.0545
2800.000000	100.137	-157.8159
2850.000000	100.097	-159.9119
2900.000000	100.042	-161.7399
2950.000000	99.979	-163.3668
3000.000000	99.903	-164.7332
3040.000000	99.842	-165.7304
3070.000000	99.800	-166.3667
3110.000000	99.732	-167.1289
3150.000000	99.676	-167.7532
3200.000000	99.599	-168.4200
3250.000000	99.530	-168.9722
3300.000000	99.472	-169.3854
3350.000000	99.415	-169.7559
3400.000000	99.373	-170.0233
3450.000000	99.335	-170.2574
3500.000000	99.308	-170.4576
3550.000000	99.289	-170.6316
3600.000000	99.281	-170.7968
3650.000000	99.287	-170.9792
3700.000000	99.298	-171.1802
3750.000000	99.319	-171.4409
3820.000000	99.359	-171.8790
3870.000000	99.407	-172.3319
3950.000000	99.479	-173.3268
4000.000000	99.542	-174.2231
4060.000000	99.578	-175.3841
4120.000000	99.617	-176.8935
4180.000000	99.629	-178.7193
4250.000000	99.599	178.7117
4310.000000	99.498	176.2257
4370.000000	99.303	173.6766
4440.000000	98.899	171.0903
4500.000000	98.374	169.9375
4550.000000	97.835	170.4242
4620.000000	97.107	174.2862
4680.000000	96.778	-179.7292
4750.000000	97.011	-172.4255
4820.000000	97.688	-168.0219
4870.000000	98.221	-167.0612
4940.000000	98.852	-168.3184
5000.000000	99.223	-170.8225
5080.000000	99.491	-175.2540
5150.000000	99.558	-179.4783
5220.000000	99.496	176.4363
5300.000000	99.311	172.2494
5380.000000	99.020	168.7515
5450.000000	98.710	166.3603
5520.000000	98.348	164.4669
5600.000000	97.912	163.0687
5700.000000	97.337	162.1573
5800.000000	96.750	162.1046
5900.000000	96.181	162.8148
6000.000000	95.660	164.3054
6080.000000	95.279	165.8076
6150.000000	94.995	167.2597
6220.000000	94.730	168.7415
6300.000000	94.450	170.4799
6400.000000	94.221	172.7482
6500.000000	94.012	175.1262
6600.000000	93.841	177.6904
6700.000000	93.705	-179.5274
6800.000000	93.629	-176.7473
6900.000000	93.579	-173.7825
7000.000000	93.600	-170.8227
7100.000000	93.665	-167.8190
7200.000000	93.793	-164.9026
7300.000000	93.963	-162.0981
7400.000000	94.195	-159.4225
7500.000000	94.472	-156.8723
7620.000000	94.885	-154.0349
7750.000000	95.429	-151.4070
7880.000000	96.085	-149.4495
8000.000000	96.774	-148.4713
8120.000000	97.411	-148.4316
8250.000000	98.153	-150.2928
8380.000000	98.849	-154.5723
8500.000000	99.336	-161.0521
8620.000000	99.585	-169.8847
8750.000000	99.435	179.0773
8850.000000	99.000	171.1100
9000.000000	97.931	162.2081
9120.000000	96.859	157.9354
9250.000000	95.641	155.8171
9380.000000	94.448	155.6013
9500.000000	93.422	156.5943
9620.000000	92.478	158.4460
9750.000000	91.547	161.2205
9880.000000	90.710	164.8259
10000.000000	90.037	168.5627
10150.000000	89.399	173.8319
10300.000000	88.912	179.9574
10440.000000	88.641	-173.7800
10600.000000	88.583	-166.1683
10750.000000	88.860	-158.8766
10900.000000	89.470	-152.1890
11060.000000	90.470	-146.8722
11200.000000	91.548	-144.2631
11380.000000	93.008	-144.3315
11500.000000	93.977	-146.4435
11720.000000	95.453	-154.6806
11800.000000	95.855	-159.1224
12060.000000	96.283	-176.8308
12200.000000	95.879	173.5809
12410.000000	94.601	162.5854
12500.000000	93.927	159.4136
12650.000000	92.692	156.0383
12800.000000	91.466	154.5118
13150.000000	88.865	156.0803
13200.000000	88.535	156.6681
13400.000000	87.352	160.1174
13600.000000	86.341	164.0572
13800.000000	85.561	168.7433
14000.000000	84.917	173.8108
14300.000000	84.327	-178.1205
14500.000000	84.193	-172.7311
14750.000000	84.242	-167.2878
15000.000000	84.559	-162.6485
15250.000000	85.132	-159.2005
15500.000000	85.974	-157.9243
15750.000000	87.115	-159.9248
16000.000000	88.235	-167.5135
16250.000000	89.026	178.7848
16500.000000	88.515	164.0755
16750.000000	87.065	154.4377
17000.000000	85.480	150.6087
17250.000000	84.123	151.0248
17500.000000	83.030	153.3108
17750.000000	82.320	156.5381
18000.000000	81.909	160.2974
18250.000000	81.755	163.7382
18500.000000	81.927	166.1198
18750.000000	82.300	166.0731
19000.000000	82.809	163.8262
19250.000000	83.262	157.2805
19500.000000	83.270	147.0992
19750.000000	82.675	134.3828
