* Measurement data measured by REW V5.20.13
* Source: EXCL: Microphone (USB Sound Device        ), MICROPHONE (Master Volume), R, volume: 0.130
* Format: 256k Log Swept Sine, 1 sweep at -6.0 dBFS with no timing reference
* Dated: Oct 28, 2023 10:14:32 AM
* REW Settings:
*  C-weighting compensation: Off
*  Target level: 75.0 dB
* Note: ; 
* Measurement: OH10 n.450 Foam R
* Smoothing: None
* Frequency Step: 1/48 octave
* Start Frequency: 1.000 Hz
*
* Freq(Hz)	SPL(dB)	Phase(degrees)
1.000000	95.686	-96.4886
1.015000	95.598	-97.9501
1.030000	95.508	-99.4160
1.044000	95.420	-100.7886
1.060000	95.318	-102.3628
1.075000	95.218	-103.8445
1.090000	95.115	-105.3322
1.106000	95.002	-106.9236
1.120000	94.903	-108.3055
1.138000	94.774	-110.0666
1.150000	94.687	-111.2327
1.172000	94.527	-113.3586
1.180000	94.468	-114.1290
1.206000	94.271	-116.6288
1.220000	94.163	-117.9754
1.241000	93.997	-120.0015
1.250000	93.924	-120.8735
1.265000	93.800	-122.3335
1.280000	93.673	-123.8039
1.315000	93.361	-127.2891
1.320000	93.315	-127.7944
1.340000	93.125	-129.8380
1.360000	92.927	-131.9213
1.380000	92.719	-134.0499
1.400000	92.503	-136.2295
1.430000	92.158	-139.6068
1.450000	91.914	-141.9385
1.475000	91.590	-144.9307
1.500000	91.229	-147.8314
1.525000	90.834	-150.6364
1.550000	90.410	-153.3914
1.575000	89.964	-156.1422
1.600000	89.501	-158.9345
1.625000	89.029	-161.8139
1.650000	88.553	-164.8264
1.675000	88.079	-168.0175
1.700000	87.615	-171.4332
1.725000	87.165	-175.1189
1.750000	86.738	-179.1206
1.775000	86.338	176.5160
1.800000	85.971	171.7452
1.825000	85.646	166.5214
1.850000	85.350	160.7209
1.875000	85.054	154.1934
1.900000	84.759	147.0383
1.925000	84.471	139.3647
1.950000	84.195	131.2817
1.975000	83.935	122.8985
2.000000	83.698	114.3242
2.030000	83.448	103.9362
2.060000	83.246	93.6186
2.090000	83.100	83.5599
2.120000	83.018	73.9486
2.140000	83.004	67.8826
2.180000	83.082	56.8221
2.200000	83.181	51.9368
2.240000	83.542	43.0258
2.270000	83.948	36.8860
2.300000	84.448	31.1669
2.330000	85.020	25.8282
2.360000	85.646	20.8296
2.400000	86.528	14.6237
2.430000	87.199	10.2612
2.470000	88.067	4.7571
2.500000	88.673	0.8109
2.540000	89.382	-4.2850
2.580000	89.944	-9.2337
2.620000	90.434	-13.7298
2.650000	90.769	-16.7922
2.690000	91.178	-20.5250
2.720000	91.459	-23.1045
2.760000	91.804	-26.3126
2.800000	92.119	-29.3280
2.850000	92.479	-32.9450
2.900000	92.811	-36.5349
2.950000	93.122	-40.2150
3.000000	93.392	-43.7809
3.040000	93.577	-46.5118
3.070000	93.700	-48.4929
3.110000	93.844	-51.0499
3.150000	93.969	-53.5155
3.200000	94.102	-56.4784
3.250000	94.215	-59.3198
3.300000	94.312	-62.0513
3.350000	94.385	-64.6813
3.400000	94.429	-67.2013
3.450000	94.448	-69.5984
3.500000	94.446	-71.8595
3.550000	94.428	-73.9717
3.600000	94.399	-75.9221
3.650000	94.362	-77.6976
3.700000	94.315	-79.2972
3.750000	94.242	-80.7406
3.820000	94.113	-82.4961
3.870000	94.011	-83.5573
3.950000	93.854	-84.9139
4.000000	93.771	-85.5445
4.060000	93.694	-86.0541
4.120000	93.615	-86.2084
4.180000	93.541	-86.0780
4.250000	93.474	-85.6887
4.310000	93.445	-85.2570
4.370000	93.454	-84.8318
4.440000	93.524	-84.3598
4.500000	93.630	-83.7954
4.550000	93.744	-83.2629
4.620000	93.934	-82.5290
4.680000	94.115	-82.0090
4.750000	94.334	-81.6576
4.820000	94.569	-81.6241
4.870000	94.759	-81.7256
4.940000	95.041	-82.0258
5.000000	95.287	-82.4163
5.080000	95.599	-83.1057
5.150000	95.841	-83.8541
5.220000	96.069	-84.8105
5.300000	96.316	-86.1160
5.380000	96.542	-87.5496
5.450000	96.716	-88.8285
5.520000	96.863	-90.0742
5.600000	97.000	-91.5721
5.700000	97.132	-93.5084
5.800000	97.226	-95.3727
5.900000	97.289	-97.0346
6.000000	97.308	-98.5782
6.080000	97.300	-99.7142
6.150000	97.285	-100.6058
6.220000	97.270	-101.3774
6.300000	97.247	-102.0953
6.400000	97.201	-102.7808
6.500000	97.157	-103.2812
6.600000	97.132	-103.6497
6.700000	97.129	-103.8252
6.800000	97.140	-103.8348
6.900000	97.168	-103.8119
7.000000	97.220	-103.8669
7.100000	97.300	-103.9183
7.200000	97.397	-104.0004
7.300000	97.498	-104.1879
7.400000	97.599	-104.5322
7.500000	97.709	-104.9982
7.620000	97.836	-105.6763
7.750000	97.947	-106.5234
7.880000	98.037	-107.5338
8.000000	98.100	-108.5099
8.120000	98.138	-109.4361
8.250000	98.152	-110.4407
8.380000	98.147	-111.3720
8.500000	98.133	-112.0977
8.620000	98.104	-112.7206
8.750000	98.070	-113.2905
8.850000	98.052	-113.6506
9.000000	98.026	-114.0454
9.120000	98.015	-114.3107
9.250000	98.018	-114.5931
9.380000	98.034	-114.8421
9.500000	98.055	-115.1027
9.620000	98.085	-115.4273
9.750000	98.126	-115.8254
9.880000	98.157	-116.2745
10.000000	98.170	-116.7458
10.150000	98.171	-117.3965
10.300000	98.158	-118.0586
10.440000	98.133	-118.6945
10.600000	98.095	-119.4101
10.750000	98.058	-120.0372
10.900000	98.017	-120.6349
11.060000	97.977	-121.2363
11.200000	97.944	-121.7284
11.380000	97.907	-122.3468
11.500000	97.885	-122.7546
11.720000	97.852	-123.5001
11.800000	97.841	-123.7770
12.060000	97.807	-124.6849
12.200000	97.787	-125.1702
12.410000	97.760	-125.8889
12.500000	97.755	-126.1852
12.650000	97.757	-126.6648
12.800000	97.764	-127.1296
13.150000	97.791	-128.1586
13.200000	97.796	-128.3051
13.400000	97.820	-128.8898
13.600000	97.844	-129.4847
13.800000	97.867	-130.0983
14.000000	97.887	-130.7096
14.300000	97.906	-131.6052
14.500000	97.913	-132.1545
14.750000	97.921	-132.7773
15.000000	97.930	-133.3297
15.250000	97.945	-133.8437
15.500000	97.965	-134.3614
15.750000	97.987	-134.9031
16.000000	98.007	-135.4865
16.250000	98.024	-136.0845
16.500000	98.036	-136.6779
16.750000	98.039	-137.2342
17.000000	98.038	-137.7444
17.250000	98.038	-138.2185
17.500000	98.041	-138.6737
17.750000	98.047	-139.1443
18.000000	98.054	-139.6390
18.250000	98.060	-140.1669
18.500000	98.062	-140.7141
18.750000	98.061	-141.2689
19.000000	98.057	-141.8204
19.250000	98.054	-142.3638
19.500000	98.051	-142.9043
19.750000	98.049	-143.4458
20.000000	98.049	-143.9943
20.299999	98.050	-144.6562
20.600000	98.054	-145.3146
20.900000	98.058	-145.9608
21.200001	98.065	-146.5936
21.400000	98.071	-147.0133
21.799999	98.087	-147.8550
22.000000	98.096	-148.2769
22.400000	98.110	-149.1102
22.700001	98.119	-149.7078
23.000000	98.128	-150.2706
23.299999	98.140	-150.8055
23.600000	98.153	-151.3268
24.000000	98.173	-152.0210
24.299999	98.186	-152.5443
24.700001	98.198	-153.2305
25.000000	98.204	-153.7239
25.400000	98.211	-154.3514
25.799999	98.218	-154.9625
26.200001	98.225	-155.5777
26.500000	98.228	-156.0436
26.900000	98.229	-156.6639
27.200001	98.229	-157.1249
27.600000	98.229	-157.7361
28.000000	98.229	-158.3505
28.500000	98.229	-159.1213
29.000000	98.229	-159.8817
29.500000	98.232	-160.6340
30.000000	98.237	-161.3945
30.400000	98.240	-162.0028
30.700001	98.241	-162.4473
31.100000	98.243	-163.0140
31.500000	98.247	-163.5575
32.000000	98.255	-164.2321
32.500000	98.262	-164.9156
33.000000	98.262	-165.5828
33.500000	98.259	-166.2055
34.000000	98.258	-166.7914
34.500000	98.258	-167.3737
35.000000	98.258	-167.9720
35.500000	98.254	-168.5808
36.000000	98.246	-169.1777
36.500000	98.237	-169.7454
37.000000	98.231	-170.2942
37.500000	98.229	-170.8586
38.200001	98.223	-171.6962
38.700001	98.211	-172.2776
39.500000	98.196	-173.1047
40.000000	98.194	-173.6111
40.599998	98.193	-174.2486
41.200001	98.186	-174.8713
41.799999	98.180	-175.4551
42.500000	98.175	-176.1415
43.099998	98.166	-176.7425
43.700001	98.152	-177.3094
44.400002	98.137	-177.9281
45.000000	98.128	-178.4614
45.500000	98.119	-178.9145
46.200001	98.102	-179.5364
46.799999	98.088	179.9608
47.500000	98.074	179.3909
48.200001	98.062	178.8005
48.700001	98.050	178.3721
49.400002	98.027	177.8043
50.000000	98.009	177.3553
50.799999	97.990	176.7725
51.500000	97.975	176.2551
52.200001	97.958	175.7310
53.000000	97.936	175.1432
53.799999	97.914	174.5787
54.500000	97.895	174.0884
55.200001	97.872	173.6163
56.000000	97.847	173.1172
57.000000	97.818	172.4972
58.000000	97.784	171.8946
59.000000	97.754	171.3320
60.000000	97.724	170.7363
60.799999	97.694	170.2741
61.500000	97.669	169.9030
62.200001	97.647	169.5334
63.000000	97.621	169.1097
64.000000	97.586	168.6027
65.000000	97.550	168.1071
66.000000	97.513	167.6381
67.000000	97.475	167.1674
68.000000	97.433	166.7181
69.000000	97.393	166.2829
70.000000	97.351	165.8587
71.000000	97.310	165.4625
72.000000	97.273	165.0784
73.000000	97.237	164.7078
74.000000	97.204	164.3226
75.000000	97.163	163.9205
76.199997	97.113	163.5025
77.500000	97.057	163.0464
78.800003	97.002	162.6697
80.000000	96.959	162.2842
81.199997	96.909	161.8844
82.500000	96.853	161.5369
83.800003	96.809	161.1636
85.000000	96.757	160.8062
86.199997	96.710	160.5161
87.500000	96.661	160.1689
88.500000	96.619	159.9265
90.000000	96.562	159.5809
91.199997	96.514	159.2997
92.500000	96.462	159.0238
93.800003	96.411	158.7487
95.000000	96.366	158.4966
96.199997	96.319	158.2484
97.500000	96.269	157.9750
98.800003	96.215	157.7230
100.000000	96.170	157.5089
101.500000	96.113	157.2503
103.000000	96.060	157.0018
104.400002	96.007	156.7566
106.000000	95.941	156.5120
107.500000	95.884	156.3022
109.000000	95.828	156.0979
110.599998	95.767	155.8616
112.000000	95.716	155.7212
113.800003	95.650	155.4831
115.000000	95.603	155.3420
117.199997	95.523	155.1071
118.000000	95.493	155.0103
120.599998	95.401	154.7242
122.000000	95.351	154.6238
124.099998	95.278	154.4105
125.000000	95.246	154.3304
126.500000	95.199	154.2061
128.000000	95.153	154.0760
131.500000	95.044	153.8528
132.000000	95.029	153.8226
134.000000	94.968	153.6895
136.000000	94.905	153.5627
138.000000	94.844	153.4440
140.000000	94.786	153.4017
143.000000	94.697	153.2775
145.000000	94.638	153.1955
147.500000	94.567	153.0996
150.000000	94.496	153.0176
152.500000	94.427	152.9764
155.000000	94.361	152.9002
157.500000	94.295	152.8116
160.000000	94.226	152.7950
162.500000	94.143	152.8378
165.000000	94.061	152.8270
167.500000	93.985	152.8444
170.000000	93.915	152.8552
172.500000	93.842	152.8613
175.000000	93.764	152.8455
177.500000	93.690	152.8633
180.000000	93.611	152.8942
182.500000	93.541	152.9610
185.000000	93.468	153.0216
187.500000	93.403	153.0515
190.000000	93.332	153.1339
192.500000	93.266	153.2227
195.000000	93.198	153.3333
197.500000	93.135	153.4395
200.000000	93.067	153.5015
203.000000	92.997	153.6106
206.000000	92.928	153.6544
209.000000	92.863	153.7792
212.000000	92.804	153.9353
214.000000	92.755	153.9814
218.000000	92.679	154.2435
220.000000	92.625	154.2879
224.000000	92.544	154.4949
227.000000	92.479	154.7070
230.000000	92.429	154.8320
233.000000	92.361	155.0048
236.000000	92.294	155.2016
240.000000	92.229	155.4344
243.000000	92.181	155.5542
247.000000	92.108	155.8079
250.000000	92.053	155.9885
254.000000	91.975	156.2465
258.000000	91.912	156.5591
262.000000	91.849	156.8286
265.000000	91.801	157.0422
269.000000	91.733	157.3350
272.000000	91.686	157.5186
276.000000	91.628	157.7474
280.000000	91.573	157.9702
285.000000	91.507	158.2973
290.000000	91.421	158.7040
295.000000	91.357	159.0495
300.000000	91.281	159.5171
304.000000	91.224	159.7231
307.000000	91.197	160.0131
311.000000	91.141	160.3386
315.000000	91.084	160.5642
320.000000	91.028	161.0085
325.000000	90.963	161.3824
330.000000	90.902	161.8591
335.000000	90.839	162.2964
340.000000	90.790	162.8115
345.000000	90.732	163.2659
350.000000	90.682	163.6458
355.000000	90.627	164.1447
360.000000	90.586	164.6811
365.000000	90.545	165.2249
370.000000	90.523	165.7033
375.000000	90.499	166.2019
382.000000	90.471	166.7948
387.000000	90.460	167.1589
395.000000	90.454	167.6089
400.000000	90.446	167.8903
406.000000	90.434	168.1431
412.000000	90.418	168.4167
418.000000	90.394	168.6174
425.000000	90.367	168.9691
431.000000	90.344	169.3065
437.000000	90.316	169.7267
444.000000	90.277	170.2103
450.000000	90.239	170.7144
455.000000	90.196	170.9925
462.000000	90.153	171.6215
468.000000	90.112	172.1135
475.000000	90.074	172.7504
482.000000	90.034	173.3818
487.000000	90.008	173.8427
494.000000	89.978	174.4045
500.000000	89.949	174.8829
508.000000	89.917	175.6048
515.000000	89.894	176.3337
522.000000	89.868	176.9534
530.000000	89.844	177.6148
538.000000	89.820	178.2324
545.000000	89.796	178.8713
552.000000	89.783	179.4537
560.000000	89.767	-179.8114
570.000000	89.757	-178.9026
580.000000	89.743	-178.1015
590.000000	89.730	-177.2491
600.000000	89.720	-176.3653
608.000000	89.716	-175.6782
615.000000	89.714	-175.0850
622.000000	89.712	-174.5197
630.000000	89.708	-173.8229
640.000000	89.717	-172.9189
650.000000	89.720	-172.0453
660.000000	89.731	-171.1488
670.000000	89.748	-170.3015
680.000000	89.758	-169.4749
690.000000	89.781	-168.5763
700.000000	89.799	-167.7501
710.000000	89.829	-166.8470
720.000000	89.857	-165.9461
730.000000	89.889	-165.0793
740.000000	89.931	-164.1835
750.000000	89.967	-163.3937
762.000000	90.024	-162.4114
775.000000	90.100	-161.3293
788.000000	90.168	-160.2356
800.000000	90.247	-159.3082
812.000000	90.303	-158.4014
825.000000	90.377	-157.3906
838.000000	90.453	-156.4341
850.000000	90.529	-155.5458
862.000000	90.615	-154.7737
875.000000	90.703	-153.9269
885.000000	90.773	-153.3159
900.000000	90.887	-152.4023
912.000000	90.977	-151.7300
925.000000	91.072	-151.0144
938.000000	91.176	-150.2974
950.000000	91.265	-149.6635
962.000000	91.359	-149.0953
975.000000	91.463	-148.4576
988.000000	91.567	-147.8544
1000.000000	91.666	-147.3699
1015.000000	91.792	-146.7642
1030.000000	91.925	-146.1888
1044.000000	92.054	-145.6604
1060.000000	92.201	-145.1508
1075.000000	92.338	-144.6948
1090.000000	92.474	-144.2452
1106.000000	92.615	-143.8800
1120.000000	92.740	-143.4958
1138.000000	92.895	-143.1649
1150.000000	92.992	-142.9445
1172.000000	93.178	-142.5925
1180.000000	93.241	-142.4402
1206.000000	93.441	-142.0945
1220.000000	93.539	-141.9584
1241.000000	93.693	-141.6717
1250.000000	93.757	-141.5939
1265.000000	93.834	-141.4836
1280.000000	93.906	-141.3771
1315.000000	94.075	-141.0601
1320.000000	94.097	-141.0168
1340.000000	94.186	-140.9180
1360.000000	94.267	-140.7704
1380.000000	94.355	-140.6303
1400.000000	94.440	-140.5922
1430.000000	94.556	-140.4021
1450.000000	94.628	-140.2930
1475.000000	94.725	-140.2206
1500.000000	94.825	-140.1586
1525.000000	94.920	-140.1054
1550.000000	95.009	-140.1125
1575.000000	95.096	-140.0768
1600.000000	95.194	-140.0521
1625.000000	95.326	-140.1713
1650.000000	95.456	-140.2629
1675.000000	95.577	-140.3158
1700.000000	95.693	-140.4265
1725.000000	95.809	-140.5909
1750.000000	95.931	-140.8264
1775.000000	96.049	-141.0088
1800.000000	96.161	-141.3190
1825.000000	96.276	-141.5955
1850.000000	96.384	-141.9375
1875.000000	96.495	-142.3364
1900.000000	96.601	-142.7515
1925.000000	96.701	-143.2355
1950.000000	96.803	-143.7209
1975.000000	96.898	-144.2349
2000.000000	96.993	-144.8423
2030.000000	97.095	-145.5324
2060.000000	97.192	-146.3143
2090.000000	97.285	-147.1271
2120.000000	97.377	-148.0049
2140.000000	97.432	-148.5995
2180.000000	97.535	-149.7896
2200.000000	97.575	-150.4057
2240.000000	97.664	-151.6322
2270.000000	97.726	-152.6086
2300.000000	97.785	-153.5905
2330.000000	97.833	-154.5229
2360.000000	97.875	-155.5067
2400.000000	97.924	-156.7423
2430.000000	97.955	-157.6630
2470.000000	97.992	-158.8422
2500.000000	98.013	-159.7081
2540.000000	98.035	-160.8124
2580.000000	98.039	-161.8830
2620.000000	98.049	-162.8949
2650.000000	98.047	-163.5858
2690.000000	98.043	-164.5096
2720.000000	98.043	-165.1420
2760.000000	98.037	-165.9753
2800.000000	98.022	-166.7535
2850.000000	98.004	-167.6478
2900.000000	97.986	-168.4500
2950.000000	97.976	-169.2134
3000.000000	97.965	-169.8511
3040.000000	97.962	-170.3525
3070.000000	97.964	-170.7380
3110.000000	97.964	-171.1740
3150.000000	97.971	-171.6367
3200.000000	97.986	-172.2390
3250.000000	98.017	-172.8394
3300.000000	98.046	-173.4630
3350.000000	98.077	-174.1145
3400.000000	98.118	-174.8629
3450.000000	98.165	-175.6738
3500.000000	98.216	-176.5977
3550.000000	98.265	-177.6208
3600.000000	98.317	-178.7888
3650.000000	98.363	179.8909
3700.000000	98.396	178.4206
3750.000000	98.399	176.8703
3820.000000	98.385	174.9518
3870.000000	98.435	173.5300
3950.000000	98.479	170.1894
4000.000000	98.451	167.6152
4060.000000	98.359	164.3678
4120.000000	98.192	160.8885
4180.000000	97.950	157.2788
4250.000000	97.532	153.1498
4310.000000	97.036	149.7174
4370.000000	96.374	146.8956
4440.000000	95.361	145.0145
4500.000000	94.311	145.5491
4550.000000	93.389	148.4761
4620.000000	92.418	156.9450
4680.000000	92.316	166.0843
4750.000000	92.975	173.7043
4820.000000	93.807	176.2400
4870.000000	94.262	175.9161
4940.000000	94.650	173.9188
5000.000000	94.751	171.7804
5080.000000	94.681	169.2060
5150.000000	94.486	167.3218
5220.000000	94.232	165.9636
5300.000000	93.884	164.9283
5380.000000	93.508	164.5214
5450.000000	93.165	164.4979
5520.000000	92.830	164.8032
5600.000000	92.462	165.5432
5700.000000	92.020	166.9066
5800.000000	91.598	168.6728
5900.000000	91.223	170.7667
6000.000000	90.871	173.1544
6080.000000	90.645	175.1848
6150.000000	90.440	177.0663
6220.000000	90.274	179.0800
6300.000000	90.107	-178.5021
6400.000000	90.018	-175.5399
6500.000000	89.995	-172.5471
6600.000000	90.002	-169.2334
6700.000000	90.030	-166.1289
6800.000000	90.123	-162.9370
6900.000000	90.255	-159.6929
7000.000000	90.460	-156.5076
7100.000000	90.701	-153.3111
7200.000000	90.995	-150.2819
7300.000000	91.350	-147.4737
7400.000000	91.756	-144.8743
7500.000000	92.202	-142.5400
7620.000000	92.824	-140.0833
7750.000000	93.573	-138.2390
7880.000000	94.419	-137.1848
8000.000000	95.256	-137.2476
8120.000000	95.997	-138.6440
8250.000000	96.779	-142.0947
8380.000000	97.432	-147.7840
8500.000000	97.800	-155.1323
8620.000000	97.813	-163.5440
8750.000000	97.444	-172.4845
8850.000000	96.917	-178.1830
9000.000000	95.921	175.7462
9120.000000	95.051	172.9741
9250.000000	94.132	171.6428
9380.000000	93.277	171.5818
9500.000000	92.552	172.3073
9620.000000	91.911	173.6961
9750.000000	91.345	175.4606
9880.000000	90.875	177.5113
10000.000000	90.478	179.4877
10150.000000	90.186	-178.0804
10300.000000	89.960	-175.7325
10440.000000	89.817	-173.7398
10600.000000	89.697	-171.5071
10750.000000	89.630	-169.5452
10900.000000	89.593	-167.4036
11060.000000	89.638	-164.8227
11200.000000	89.868	-162.7672
11380.000000	90.271	-161.8031
11500.000000	90.539	-161.4833
11720.000000	91.163	-163.7198
11800.000000	91.297	-165.2587
12060.000000	91.321	-170.8860
12200.000000	91.107	-173.7274
12410.000000	90.588	-176.8095
12500.000000	90.327	-177.6776
12650.000000	89.810	-178.4232
12800.000000	89.308	-178.5298
13150.000000	88.287	-176.4522
13200.000000	88.184	-175.9706
13400.000000	87.806	-173.6356
13600.000000	87.612	-171.3372
13800.000000	87.594	-169.0629
14000.000000	87.749	-167.1630
14300.000000	88.320	-166.7557
14500.000000	88.900	-168.4503
14750.000000	89.637	-174.5308
15000.000000	90.000	173.9724
15250.000000	89.248	160.1096
15500.000000	87.618	149.9331
15750.000000	85.638	145.0653
16000.000000	83.761	144.2653
16250.000000	82.500	146.7217
16500.000000	81.568	150.6724
16750.000000	80.923	155.2532
17000.000000	80.644	160.1918
17250.000000	80.518	165.7880
17500.000000	80.700	170.7597
17750.000000	81.164	175.3907
18000.000000	82.005	177.2991
18250.000000	82.906	178.1533
18500.000000	84.166	175.7358
18750.000000	85.198	168.1531
19000.000000	85.795	155.1494
19250.000000	85.383	141.1461
19500.000000	84.275	129.4651
19750.000000	82.969	121.0721
