* Measurement data measured by REW V5.20.13
* Source: C:\Users\marcu\OneDrive\Desktop\Fix\ n.Silver f.Gold Foam L.txt
* Format: Comma/Tab/Space delimited data
* Dated: Jul 26, 2023 6:09:33 PM
* REW Settings:
*  C-weighting compensation: Off
*  Target level: 75.0 dB
* Note: ; Measurement imported from C:\Users\marcu\OneDrive\Desktop\Fix\ n.Silver f.Gold Foam L.txt Format: Comma/Tab/Space delimited data 54613 values loaded, 0 Hz to 20,000 Hz 
* Measurement:  n.Silver f.Gold Foam L
* Smoothing: None
* Frequency Step: 1/48 octave
* Start Frequency: 1.000 Hz
*
* Freq(Hz)	SPL(dB)	Phase(degrees)
1.000000	55.501	121.7828
1.015000	55.335	120.9535
1.030000	55.164	120.1305
1.044000	54.998	119.3682
1.060000	54.802	118.5047
1.075000	54.611	117.7029
1.090000	54.412	116.9092
1.106000	54.195	116.0559
1.120000	54.008	115.2175
1.138000	53.775	114.0084
1.150000	53.623	113.1330
1.172000	53.347	111.4153
1.180000	53.247	110.7625
1.206000	52.918	108.5771
1.220000	52.737	107.3813
1.241000	52.456	105.5987
1.250000	52.332	104.8483
1.265000	52.118	103.6287
1.280000	51.895	102.4619
1.315000	51.326	100.0363
1.320000	51.238	99.7325
1.340000	50.870	98.6482
1.360000	50.471	97.8022
1.380000	50.036	97.2328
1.400000	49.563	96.9786
1.430000	48.771	97.2723
1.450000	48.184	97.9741
1.475000	47.364	99.4912
1.500000	46.343	101.7603
1.525000	45.131	104.7104
1.550000	43.770	108.2551
1.575000	42.298	112.3080
1.600000	40.758	116.7826
1.625000	39.188	121.5925
1.650000	37.631	126.6514
1.675000	36.125	131.8727
1.700000	34.712	137.1702
1.725000	33.432	142.4573
1.750000	32.326	147.6476
1.775000	31.433	152.6547
1.800000	30.795	157.3923
1.825000	30.452	161.7738
1.850000	30.439	165.9203
1.875000	30.742	170.2529
1.900000	31.320	174.7321
1.925000	32.132	179.2979
1.950000	33.138	-176.1100
1.975000	34.297	-171.5518
2.000000	35.567	-167.0876
2.030000	37.182	-161.9396
2.060000	38.828	-157.1178
2.090000	40.435	-152.7261
2.120000	41.933	-148.8687
2.140000	42.835	-146.6451
2.180000	44.316	-143.1725
2.200000	44.854	-141.9850
2.240000	45.693	-140.8060
2.270000	46.193	-140.8589
2.300000	46.597	-141.5861
2.330000	46.917	-142.8710
2.360000	47.168	-144.5976
2.400000	47.415	-147.3854
2.430000	47.552	-149.6899
2.470000	47.695	-152.8261
2.500000	47.790	-155.0753
2.540000	47.922	-157.7156
2.580000	48.082	-159.7731
2.620000	48.207	-161.7497
2.650000	48.270	-163.2639
2.690000	48.316	-165.3105
2.720000	48.325	-166.8563
2.760000	48.306	-168.9174
2.800000	48.257	-170.9619
2.850000	48.160	-173.4664
2.900000	48.031	-175.8812
2.950000	47.877	-178.1904
3.000000	47.681	179.4744
3.040000	47.493	177.5989
3.070000	47.335	176.2094
3.110000	47.103	174.4054
3.150000	46.849	172.6869
3.200000	46.504	170.7088
3.250000	46.132	168.9786
3.300000	45.738	167.5587
3.350000	45.287	166.3192
3.400000	44.774	165.1908
3.450000	44.222	164.2497
3.500000	43.657	163.5722
3.550000	43.105	163.2346
3.600000	42.589	163.3129
3.650000	42.136	163.8835
3.700000	41.739	165.1222
3.750000	41.342	167.1731
3.820000	40.821	170.9512
3.870000	40.503	173.9542
3.950000	40.143	178.5869
4.000000	40.043	-179.0190
4.060000	40.089	-176.9142
4.120000	40.334	-175.0721
4.180000	40.726	-173.4845
4.250000	41.295	-172.1001
4.310000	41.812	-171.4400
4.370000	42.297	-171.3816
4.440000	42.790	-172.2467
4.500000	43.224	-173.8284
4.550000	43.592	-175.6025
4.620000	44.100	-178.5584
4.680000	44.517	178.6780
4.750000	44.964	175.4556
4.820000	45.363	172.2254
4.870000	45.627	169.7150
4.940000	45.970	166.0238
5.000000	46.243	162.7986
5.080000	46.580	158.5826
5.150000	46.852	155.1127
5.220000	47.097	151.6940
5.300000	47.345	147.8400
5.380000	47.567	144.1461
5.450000	47.744	141.1301
5.520000	47.908	138.3789
5.600000	48.068	135.4723
5.700000	48.236	132.1938
5.800000	48.392	129.3707
5.900000	48.554	127.0726
6.000000	48.701	125.3406
6.080000	48.818	124.2890
6.150000	48.933	123.5544
6.220000	49.069	122.9456
6.300000	49.251	122.4673
6.400000	49.505	122.2477
6.500000	49.789	122.2142
6.600000	50.104	122.1162
6.700000	50.462	121.9905
6.800000	50.855	121.8916
6.900000	51.257	121.7003
7.000000	51.649	121.3076
7.100000	52.048	120.7351
7.200000	52.444	120.0358
7.300000	52.819	119.2522
7.400000	53.165	118.3868
7.500000	53.490	117.4053
7.620000	53.850	116.1817
7.750000	54.199	114.9230
7.880000	54.501	113.6756
8.000000	54.751	112.5926
8.120000	54.980	111.6472
8.250000	55.199	110.7520
8.380000	55.402	109.9786
8.500000	55.587	109.3803
8.620000	55.763	108.9030
8.750000	55.951	108.4549
8.850000	56.100	108.1264
9.000000	56.327	107.7026
9.120000	56.509	107.3622
9.250000	56.707	106.9448
9.380000	56.906	106.5022
9.500000	57.087	106.0544
9.620000	57.262	105.5548
9.750000	57.449	104.9645
9.880000	57.621	104.3411
10.000000	57.759	103.7380
10.150000	57.912	102.9471
10.300000	58.050	102.1454
10.440000	58.164	101.3869
10.600000	58.284	100.5124
10.750000	58.392	99.6935
10.900000	58.494	98.8717
11.060000	58.599	97.9894
11.200000	58.687	97.2124
11.380000	58.796	96.2080
11.500000	58.867	95.5335
11.720000	58.992	94.2956
11.800000	59.036	93.8475
12.060000	59.176	92.3981
12.200000	59.251	91.6286
12.410000	59.365	90.4858
12.500000	59.422	89.9982
12.650000	59.528	89.1901
12.800000	59.640	88.3816
13.150000	59.904	86.4780
13.200000	59.941	86.2051
13.400000	60.089	85.1065
13.600000	60.231	84.0209
13.800000	60.366	82.9532
14.000000	60.496	81.9319
14.300000	60.681	80.5000
14.500000	60.801	79.6278
14.750000	60.951	78.6142
15.000000	61.103	77.6749
15.250000	61.256	76.7750
15.500000	61.407	75.8957
15.750000	61.555	75.0284
16.000000	61.698	74.1723
16.250000	61.837	73.3400
16.500000	61.971	72.5365
16.750000	62.097	71.7681
17.000000	62.217	71.0277
17.250000	62.330	70.3097
17.500000	62.436	69.6063
17.750000	62.536	68.9148
18.000000	62.629	68.2378
18.250000	62.717	67.5784
18.500000	62.799	66.9392
18.750000	62.879	66.3136
19.000000	62.959	65.6954
19.250000	63.036	65.0680
19.500000	63.112	64.4265
19.750000	63.185	63.7677
20.000000	63.254	63.0996
20.299999	63.331	62.3068
20.600000	63.405	61.5426
20.900000	63.477	60.8191
21.200001	63.553	60.1299
21.400000	63.607	59.6753
21.799999	63.718	58.7534
22.000000	63.773	58.2791
22.400000	63.878	57.3112
22.700001	63.949	56.6001
23.000000	64.013	55.9381
23.299999	64.074	55.3424
23.600000	64.139	54.8042
24.000000	64.232	54.1307
24.299999	64.305	53.6105
24.700001	64.400	52.8588
25.000000	64.460	52.2662
25.400000	64.518	51.5091
25.799999	64.559	50.8912
26.200001	64.601	50.4488
26.500000	64.646	50.1797
26.900000	64.728	49.7800
27.200001	64.797	49.3662
27.600000	64.880	48.6304
28.000000	64.932	47.7816
28.500000	64.949	46.8321
29.000000	64.954	46.2044
29.500000	64.992	45.7884
30.000000	65.065	45.3012
30.400000	65.130	44.7747
30.700001	65.170	44.3314
31.100000	65.214	43.7536
31.500000	65.254	43.2346
32.000000	65.306	42.6437
32.500000	65.362	42.0422
33.000000	65.409	41.4287
33.500000	65.445	40.8754
34.000000	65.480	40.4091
34.500000	65.520	39.9662
35.000000	65.558	39.4949
35.500000	65.586	39.0342
36.000000	65.609	38.6534
36.500000	65.640	38.3324
37.000000	65.684	37.9597
37.500000	65.724	37.4757
38.200001	65.749	36.7815
38.700001	65.756	36.4355
39.500000	65.806	36.0215
40.000000	65.855	35.6367
40.599998	65.897	35.0293
41.200001	65.911	34.4720
41.799999	65.919	34.0821
42.500000	65.946	33.7261
43.099998	65.978	33.3821
43.700001	66.007	33.0073
44.400002	66.035	32.5857
45.000000	66.058	32.2524
45.500000	66.080	31.9839
46.200001	66.114	31.5898
46.799999	66.139	31.2201
47.500000	66.159	30.8013
48.200001	66.177	30.4507
48.700001	66.194	30.2206
49.400002	66.219	29.8744
50.000000	66.235	29.5733
50.799999	66.254	29.2262
51.500000	66.277	28.9354
52.200001	66.297	28.6129
53.000000	66.312	28.2688
53.799999	66.330	27.9807
54.500000	66.350	27.7165
55.200001	66.367	27.4457
56.000000	66.385	27.1725
57.000000	66.413	26.7921
58.000000	66.423	26.3874
59.000000	66.434	26.1541
60.000000	66.471	25.8630
60.799999	66.491	25.5126
61.500000	66.498	25.2356
62.200001	66.503	25.0194
63.000000	66.515	24.8056
64.000000	66.531	24.5574
65.000000	66.552	24.3113
66.000000	66.568	24.0662
67.000000	66.584	23.8345
68.000000	66.597	23.5972
69.000000	66.607	23.3682
70.000000	66.615	23.1172
71.000000	66.618	22.8963
72.000000	66.628	22.7111
73.000000	66.643	22.4825
74.000000	66.658	22.2342
75.000000	66.661	21.9128
76.199997	66.647	21.8190
77.500000	66.693	21.6711
78.800003	66.699	21.3180
80.000000	66.703	21.1447
81.199997	66.706	20.9743
82.500000	66.720	20.8445
83.800003	66.743	20.6251
85.000000	66.754	20.3740
86.199997	66.762	20.2242
87.500000	66.779	20.0412
88.500000	66.787	19.9281
90.000000	66.803	19.7426
91.199997	66.807	19.5942
92.500000	66.811	19.4668
93.800003	66.817	19.3523
95.000000	66.827	19.2169
96.199997	66.835	19.0742
97.500000	66.843	18.9329
98.800003	66.851	18.8090
100.000000	66.858	18.6998
101.500000	66.865	18.5796
103.000000	66.874	18.4583
104.400002	66.883	18.3396
106.000000	66.892	18.1925
107.500000	66.899	18.1012
109.000000	66.914	17.9820
110.599998	66.922	17.8438
112.000000	66.930	17.7486
113.800003	66.939	17.6294
115.000000	66.947	17.5529
117.199997	66.962	17.3927
118.000000	66.965	17.3305
120.599998	66.979	17.1976
122.000000	66.986	17.1237
124.099998	66.994	17.0461
125.000000	67.001	17.0146
126.500000	67.016	16.9243
128.000000	67.031	16.8256
131.500000	67.056	16.6732
132.000000	67.060	16.6593
134.000000	67.079	16.5810
136.000000	67.093	16.4785
138.000000	67.109	16.3946
140.000000	67.127	16.3153
143.000000	67.152	16.2242
145.000000	67.168	16.1482
147.500000	67.187	16.0552
150.000000	67.208	15.9652
152.500000	67.228	15.8834
155.000000	67.248	15.8209
157.500000	67.266	15.7583
160.000000	67.282	15.6820
162.500000	67.288	15.6023
165.000000	67.294	15.5413
167.500000	67.299	15.4898
170.000000	67.303	15.4320
172.500000	67.308	15.3698
175.000000	67.313	15.3269
177.500000	67.319	15.2994
180.000000	67.323	15.2285
182.500000	67.323	15.1566
185.000000	67.326	15.1082
187.500000	67.330	15.0702
190.000000	67.331	15.0268
192.500000	67.333	14.9861
195.000000	67.336	14.9409
197.500000	67.339	14.9037
200.000000	67.342	14.8670
203.000000	67.351	14.8199
206.000000	67.363	14.7608
209.000000	67.372	14.7242
212.000000	67.382	14.6683
214.000000	67.388	14.6297
218.000000	67.400	14.5854
220.000000	67.406	14.5727
224.000000	67.417	14.5398
227.000000	67.427	14.5034
230.000000	67.433	14.4623
233.000000	67.439	14.4303
236.000000	67.443	14.3965
240.000000	67.453	14.3646
243.000000	67.461	14.3415
247.000000	67.467	14.3051
250.000000	67.474	14.2856
254.000000	67.484	14.2471
258.000000	67.493	14.2118
262.000000	67.501	14.1854
265.000000	67.509	14.1747
269.000000	67.518	14.1543
272.000000	67.524	14.1361
276.000000	67.531	14.1199
280.000000	67.537	14.1091
285.000000	67.544	14.0917
290.000000	67.552	14.0721
295.000000	67.560	14.0511
300.000000	67.569	14.0335
304.000000	67.574	14.0316
307.000000	67.577	14.0301
311.000000	67.583	14.0366
315.000000	67.590	14.0440
320.000000	67.595	14.0395
325.000000	67.598	14.0466
330.000000	67.601	14.0601
335.000000	67.604	14.0489
340.000000	67.608	14.0626
345.000000	67.611	14.0984
350.000000	67.615	14.1101
355.000000	67.618	14.1136
360.000000	67.621	14.1300
365.000000	67.622	14.1499
370.000000	67.623	14.1717
375.000000	67.626	14.2049
382.000000	67.629	14.2473
387.000000	67.629	14.2695
395.000000	67.630	14.3219
400.000000	67.631	14.3625
406.000000	67.635	14.3884
412.000000	67.635	14.4259
418.000000	67.635	14.4659
425.000000	67.635	14.5125
431.000000	67.636	14.5582
437.000000	67.636	14.6068
444.000000	67.634	14.6472
450.000000	67.631	14.6936
455.000000	67.627	14.7328
462.000000	67.622	14.7985
468.000000	67.620	14.8724
475.000000	67.614	14.9594
482.000000	67.607	15.0258
487.000000	67.601	15.0749
494.000000	67.594	15.1663
500.000000	67.588	15.2536
508.000000	67.580	15.3630
515.000000	67.574	15.4738
522.000000	67.565	15.5707
530.000000	67.555	15.6928
538.000000	67.546	15.8380
545.000000	67.538	15.9797
552.000000	67.528	16.1108
560.000000	67.516	16.2554
570.000000	67.503	16.4534
580.000000	67.487	16.6861
590.000000	67.471	16.9439
600.000000	67.455	17.1977
608.000000	67.440	17.3883
615.000000	67.427	17.5747
622.000000	67.416	17.7872
630.000000	67.402	18.0454
640.000000	67.386	18.3682
650.000000	67.368	18.6875
660.000000	67.348	19.0159
670.000000	67.333	19.3576
680.000000	67.315	19.7491
690.000000	67.296	20.1674
700.000000	67.278	20.5654
710.000000	67.260	20.9675
720.000000	67.241	21.4185
730.000000	67.221	21.9536
740.000000	67.210	22.5453
750.000000	67.208	23.1403
762.000000	67.213	23.8056
775.000000	67.226	24.4927
788.000000	67.239	25.1956
800.000000	67.246	25.8376
812.000000	67.248	26.4920
825.000000	67.258	27.2124
838.000000	67.267	27.9285
850.000000	67.278	28.5985
862.000000	67.294	29.2793
875.000000	67.316	30.0189
885.000000	67.334	30.5737
900.000000	67.366	31.3972
912.000000	67.395	32.0632
925.000000	67.431	32.7806
938.000000	67.469	33.4832
950.000000	67.509	34.1318
962.000000	67.553	34.7673
975.000000	67.602	35.4447
988.000000	67.653	36.1014
1000.000000	67.707	36.7056
1015.000000	67.787	37.4518
1030.000000	67.875	38.1698
1044.000000	67.959	38.8008
1060.000000	68.060	39.5019
1075.000000	68.157	40.1337
1090.000000	68.254	40.7370
1106.000000	68.359	41.3312
1120.000000	68.454	41.8297
1138.000000	68.574	42.4302
1150.000000	68.654	42.8221
1172.000000	68.801	43.4923
1180.000000	68.854	43.7186
1206.000000	69.023	44.4290
1220.000000	69.114	44.7913
1241.000000	69.247	45.3174
1250.000000	69.299	45.5280
1265.000000	69.370	45.8815
1280.000000	69.436	46.2495
1315.000000	69.585	47.0389
1320.000000	69.605	47.1477
1340.000000	69.688	47.6052
1360.000000	69.773	48.0731
1380.000000	69.857	48.5036
1400.000000	69.943	48.9239
1430.000000	70.070	49.6184
1450.000000	70.153	50.0533
1475.000000	70.262	50.5889
1500.000000	70.376	51.1362
1525.000000	70.490	51.6437
1550.000000	70.608	52.1601
1575.000000	70.728	52.6798
1600.000000	70.861	53.1425
1625.000000	71.022	53.5854
1650.000000	71.192	54.0313
1675.000000	71.365	54.4479
1700.000000	71.541	54.8068
1725.000000	71.720	55.1373
1750.000000	71.905	55.4241
1775.000000	72.091	55.6584
1800.000000	72.279	55.8635
1825.000000	72.467	56.0112
1850.000000	72.657	56.0934
1875.000000	72.851	56.1095
1900.000000	73.044	56.0620
1925.000000	73.236	55.9428
1950.000000	73.427	55.7533
1975.000000	73.616	55.4724
2000.000000	73.801	55.1151
2030.000000	74.010	54.5678
2060.000000	74.210	53.8881
2090.000000	74.401	53.0708
2120.000000	74.580	52.1191
2140.000000	74.694	51.4073
2180.000000	74.909	49.7863
2200.000000	75.009	48.8769
2240.000000	75.193	46.8973
2270.000000	75.313	45.2681
2300.000000	75.419	43.5425
2330.000000	75.513	41.7199
2360.000000	75.598	39.8006
2400.000000	75.691	37.1570
2430.000000	75.741	35.1527
2470.000000	75.782	32.4976
2500.000000	75.793	30.5287
2540.000000	75.781	27.9996
2580.000000	75.740	25.6093
2620.000000	75.676	23.3891
2650.000000	75.614	21.8655
2690.000000	75.517	20.0165
2720.000000	75.439	18.7717
2760.000000	75.328	17.2760
2800.000000	75.210	15.9990
2850.000000	75.059	14.7019
2900.000000	74.915	13.6539
2950.000000	74.782	12.8454
3000.000000	74.658	12.2728
3040.000000	74.572	11.9343
3070.000000	74.517	11.7341
3110.000000	74.453	11.5577
3150.000000	74.402	11.4507
3200.000000	74.354	11.3936
3250.000000	74.324	11.4101
3300.000000	74.318	11.4615
3350.000000	74.337	11.5215
3400.000000	74.376	11.5695
3450.000000	74.438	11.6125
3500.000000	74.522	11.5820
3550.000000	74.632	11.4670
3600.000000	74.760	11.2560
3650.000000	74.906	10.9116
3700.000000	75.068	10.4066
3750.000000	75.246	9.7054
3820.000000	75.520	8.3300
3870.000000	75.729	6.9941
3950.000000	76.061	4.1934
4000.000000	76.259	1.9582
4060.000000	76.472	-1.2855
4120.000000	76.646	-5.1364
4180.000000	76.764	-9.5713
4250.000000	76.802	-15.3480
4310.000000	76.735	-20.6160
4370.000000	76.565	-25.9167
4440.000000	76.234	-31.7653
4500.000000	75.841	-36.2380
4550.000000	75.448	-39.4619
4620.000000	74.817	-43.1680
4680.000000	74.221	-45.5732
4750.000000	73.490	-47.5880
4820.000000	72.750	-48.8394
4870.000000	72.225	-49.3445
4940.000000	71.502	-49.5567
5000.000000	70.896	-49.3622
5080.000000	70.113	-48.6452
5150.000000	69.455	-47.6722
5220.000000	68.828	-46.3952
5300.000000	68.156	-44.6769
5380.000000	67.530	-42.7112
5450.000000	67.013	-40.8138
5520.000000	66.524	-38.7776
5600.000000	66.002	-36.3283
5700.000000	65.382	-33.0224
5800.000000	64.812	-29.4450
5900.000000	64.299	-25.5725
6000.000000	63.842	-21.2436
6080.000000	63.561	-17.3126
6150.000000	63.448	-13.7598
6220.000000	63.467	-10.8613
6300.000000	63.469	-8.8035
6400.000000	63.325	-6.4037
6500.000000	63.159	-3.2516
6600.000000	63.036	0.3284
6700.000000	62.978	4.0433
6800.000000	62.972	7.8281
6900.000000	63.017	11.6027
7000.000000	63.107	15.3976
7100.000000	63.250	19.1564
7200.000000	63.460	22.8172
7300.000000	63.723	26.3011
7400.000000	64.026	29.6414
7500.000000	64.370	32.8314
7620.000000	64.858	36.3899
7750.000000	65.478	39.8410
7880.000000	66.196	42.7142
8000.000000	66.914	44.7163
8120.000000	67.621	45.8871
8250.000000	68.428	45.9504
8380.000000	69.257	44.4393
8500.000000	69.970	41.4149
8620.000000	70.536	36.8052
8750.000000	70.862	30.4711
8850.000000	70.866	25.2608
9000.000000	70.493	18.2095
9120.000000	69.958	14.0660
9250.000000	69.268	11.3853
9380.000000	68.574	10.4341
9500.000000	67.990	10.8076
9620.000000	67.497	12.0924
9750.000000	67.087	14.2463
9880.000000	66.829	16.9649
10000.000000	66.747	19.7991
10150.000000	66.903	23.5235
10300.000000	67.344	27.0185
10440.000000	68.010	29.5880
10600.000000	69.055	30.8180
10750.000000	70.215	29.3580
10900.000000	71.383	24.5549
11060.000000	72.389	15.5815
11200.000000	72.889	4.9913
11380.000000	72.834	-10.6498
11500.000000	72.313	-20.6856
11720.000000	70.553	-34.4879
11800.000000	69.761	-37.6279
12060.000000	67.142	-41.9606
12200.000000	65.858	-41.5805
12410.000000	64.193	-38.8913
12500.000000	63.577	-37.2194
12650.000000	62.674	-33.9969
12800.000000	61.926	-30.4328
13150.000000	60.785	-21.9168
13200.000000	60.692	-20.7754
13400.000000	60.506	-16.7600
13600.000000	60.589	-14.1131
13800.000000	60.897	-13.7118
14000.000000	61.296	-16.8411
14300.000000	61.335	-29.4416
14500.000000	60.433	-40.6067
14750.000000	58.199	-51.0007
15000.000000	55.427	-54.5858
15250.000000	52.757	-52.8940
15500.000000	50.418	-47.9850
15750.000000	48.417	-41.1190
16000.000000	46.767	-33.0610
16250.000000	45.608	-24.1635
16500.000000	44.873	-14.4529
16750.000000	44.452	-5.7539
17000.000000	44.099	2.6679
17250.000000	43.904	11.4034
17500.000000	43.918	19.9570
17750.000000	44.150	27.7295
18000.000000	44.556	34.6244
18250.000000	45.087	39.8695
18500.000000	45.682	42.6398
18750.000000	46.175	42.4108
19000.000000	46.234	39.0628
19250.000000	45.635	34.3061
19500.000000	44.345	31.1069
19750.000000	42.576	31.1753
