* Measurement data measured by REW V5.20.13
* Source: EXCL: Microphone (USB Sound Device        ), MICROPHONE (Master Volume), L, volume: 0.250
* Format: 256k Log Swept Sine, 1 sweep at -6.0 dBFS with no timing reference
* Dated: Sep 17, 2023 12:17:18 PM
* REW Settings:
*  C-weighting compensation: Off
*  Target level: 75.0 dB
* Note: ; 
* Measurement: n.Black f.Blue Foam L
* Smoothing: None
* Frequency Step: 1/48 octave
* Start Frequency: 1.000 Hz
*
* Freq(Hz)	SPL(dB)	Phase(degrees)
1.000000	53.297	121.5102
1.015000	53.126	120.6618
1.030000	52.948	119.8173
1.044000	52.776	119.0329
1.060000	52.572	118.1413
1.075000	52.373	117.3104
1.090000	52.166	116.4847
1.106000	51.940	115.5876
1.120000	51.749	114.6689
1.138000	51.515	113.2974
1.150000	51.364	112.2819
1.172000	51.095	110.2544
1.180000	50.999	109.4753
1.206000	50.684	106.8452
1.220000	50.511	105.3973
1.241000	50.242	103.2349
1.250000	50.122	102.3250
1.265000	49.913	100.8493
1.280000	49.693	99.4446
1.315000	49.121	96.5717
1.320000	49.031	96.2200
1.340000	48.650	94.9940
1.360000	48.228	94.0979
1.380000	47.759	93.5863
1.400000	47.240	93.5134
1.430000	46.355	94.3458
1.450000	45.686	95.6077
1.475000	44.736	98.0973
1.500000	43.533	101.7979
1.525000	42.090	106.6045
1.550000	40.457	112.3505
1.575000	38.685	118.8697
1.600000	36.825	125.9956
1.625000	34.926	133.5618
1.650000	33.040	141.4020
1.675000	31.216	149.3497
1.700000	29.505	157.2386
1.725000	27.958	164.9022
1.750000	26.624	172.1742
1.775000	25.555	178.8882
1.800000	24.800	-175.1223
1.825000	24.410	-170.0236
1.850000	24.431	-165.7491
1.875000	24.846	-161.8203
1.900000	25.606	-158.2056
1.925000	26.657	-154.8959
1.950000	27.949	-151.8817
1.975000	29.428	-149.1537
2.000000	31.044	-146.7025
2.030000	33.089	-144.1135
2.060000	35.165	-141.8936
2.090000	37.183	-140.0266
2.120000	39.053	-138.4965
2.140000	40.173	-137.6556
2.180000	41.990	-136.3823
2.200000	42.635	-135.9420
2.240000	43.600	-135.8046
2.270000	44.141	-136.3755
2.300000	44.545	-137.4304
2.330000	44.832	-138.8845
2.360000	45.023	-140.6534
2.400000	45.161	-143.3555
2.430000	45.202	-145.5300
2.470000	45.211	-148.4659
2.500000	45.209	-150.5857
2.540000	45.232	-153.1418
2.580000	45.313	-155.2640
2.620000	45.369	-157.3237
2.650000	45.380	-158.8881
2.690000	45.356	-160.9869
2.720000	45.310	-162.5617
2.760000	45.214	-164.6487
2.800000	45.078	-166.7062
2.850000	44.857	-169.2110
2.900000	44.583	-171.6110
2.950000	44.262	-173.9148
3.000000	43.902	-176.4109
3.040000	43.582	-178.4950
3.070000	43.319	179.9516
3.110000	42.934	177.9672
3.150000	42.506	176.1664
3.200000	41.901	174.3138
3.250000	41.210	173.0720
3.300000	40.421	172.6180
3.350000	39.408	172.6209
3.400000	38.162	172.8899
3.450000	36.796	173.6093
3.500000	35.419	174.9633
3.550000	34.143	177.1361
3.600000	33.079	-179.6879
3.650000	32.339	-175.3245
3.700000	31.984	-169.1400
3.750000	31.926	-160.4600
3.820000	32.218	-145.8137
3.870000	32.613	-134.8514
3.950000	33.397	-119.0563
4.000000	33.888	-111.7443
4.060000	34.429	-106.8346
4.120000	35.102	-105.1204
4.180000	35.874	-105.7015
4.250000	36.798	-108.2920
4.310000	37.524	-111.3045
4.370000	38.109	-114.2662
4.440000	38.553	-117.2184
4.500000	38.794	-120.2543
4.550000	38.918	-123.1307
4.620000	39.000	-127.5429
4.680000	39.008	-131.5487
4.750000	38.975	-136.3101
4.820000	38.893	-141.1586
4.870000	38.780	-144.7951
4.940000	38.562	-150.0798
5.000000	38.335	-154.7415
5.080000	38.000	-161.0663
5.150000	37.697	-166.6525
5.220000	37.353	-172.5088
5.300000	36.917	-179.4121
5.380000	36.461	173.7504
5.450000	36.068	168.0592
5.520000	35.694	162.7903
5.600000	35.251	156.8068
5.700000	34.698	149.7326
5.800000	34.209	143.8974
5.900000	33.831	140.1040
6.000000	33.484	138.3449
6.080000	33.280	138.0070
6.150000	33.208	138.2372
6.220000	33.280	138.7496
6.300000	33.576	140.0081
6.400000	34.205	142.8127
6.500000	35.006	145.7892
6.600000	35.854	147.6548
6.700000	36.800	148.1788
6.800000	37.848	147.9435
6.900000	38.871	147.1910
7.000000	39.757	146.0995
7.100000	40.554	144.4158
7.200000	41.278	142.3739
7.300000	41.920	140.3358
7.400000	42.471	138.4599
7.500000	42.930	136.5307
7.620000	43.391	134.3753
7.750000	43.809	132.5262
7.880000	44.116	131.0811
8.000000	44.348	130.1430
8.120000	44.570	129.6798
8.250000	44.772	129.7355
8.380000	44.978	130.1476
8.500000	45.210	130.7299
8.620000	45.466	131.6153
8.750000	45.771	132.5943
8.850000	46.028	133.1801
9.000000	46.456	133.9563
9.120000	46.804	134.3863
9.250000	47.166	134.5444
9.380000	47.523	134.4328
9.500000	47.830	134.1823
9.620000	48.104	133.8110
9.750000	48.373	133.2486
9.880000	48.604	132.6572
10.000000	48.775	132.1284
10.150000	48.942	131.4541
10.300000	49.084	130.8583
10.440000	49.190	130.3865
10.600000	49.299	129.9038
10.750000	49.403	129.5018
10.900000	49.506	129.1357
11.060000	49.620	128.7013
11.200000	49.724	128.2943
11.380000	49.857	127.6962
11.500000	49.946	127.2357
11.720000	50.107	126.2990
11.800000	50.163	125.9326
12.060000	50.342	124.6576
12.200000	50.435	123.9504
12.410000	50.577	122.8595
12.500000	50.647	122.3854
12.650000	50.775	121.5879
12.800000	50.912	120.7713
13.150000	51.250	118.7716
13.200000	51.299	118.4756
13.400000	51.500	117.2583
13.600000	51.701	116.0238
13.800000	51.900	114.7790
14.000000	52.099	113.5684
14.300000	52.394	111.8380
14.500000	52.593	110.7663
14.750000	52.846	109.5038
15.000000	53.103	108.3184
15.250000	53.362	107.1805
15.500000	53.618	106.0868
15.750000	53.867	105.0399
16.000000	54.108	104.0571
16.250000	54.345	103.1522
16.500000	54.578	102.3239
16.750000	54.805	101.5640
17.000000	55.027	100.8385
17.250000	55.243	100.1299
17.500000	55.451	99.4165
17.750000	55.647	98.6952
18.000000	55.832	97.9724
18.250000	56.004	97.2559
18.500000	56.166	96.5531
18.750000	56.318	95.8583
19.000000	56.464	95.1665
19.250000	56.604	94.4641
19.500000	56.736	93.7512
19.750000	56.862	93.0291
20.000000	56.981	92.3116
20.299999	57.120	91.4704
20.600000	57.260	90.6523
20.900000	57.404	89.8421
21.200001	57.554	89.0041
21.400000	57.657	88.4098
21.799999	57.860	87.1312
22.000000	57.956	86.4580
22.400000	58.133	85.1003
22.700001	58.253	84.1342
23.000000	58.367	83.2588
23.299999	58.483	82.4790
23.600000	58.604	81.7732
24.000000	58.779	80.8898
24.299999	58.917	80.2220
24.700001	59.102	79.2850
25.000000	59.234	78.5441
25.400000	59.394	77.5311
25.799999	59.531	76.5466
26.200001	59.646	75.6575
26.500000	59.724	75.0794
26.900000	59.826	74.4233
27.200001	59.908	73.9844
27.600000	60.025	73.4025
28.000000	60.148	72.7529
28.500000	60.292	71.8168
29.000000	60.413	70.8302
29.500000	60.515	69.9085
30.000000	60.617	69.0839
30.400000	60.705	68.4506
30.700001	60.774	67.9647
31.100000	60.866	67.2915
31.500000	60.955	66.6044
32.000000	61.058	65.7656
32.500000	61.158	64.9686
33.000000	61.257	64.1941
33.500000	61.352	63.4244
34.000000	61.437	62.6799
34.500000	61.515	62.0021
35.000000	61.592	61.4058
35.500000	61.677	60.8511
36.000000	61.773	60.2594
36.500000	61.868	59.5694
37.000000	61.950	58.7972
37.500000	62.010	58.0412
38.200001	62.081	57.1780
38.700001	62.145	56.6528
39.500000	62.261	55.6573
40.000000	62.311	54.9767
40.599998	62.351	54.3316
41.200001	62.404	53.9187
41.799999	62.488	53.4920
42.500000	62.586	52.7654
43.099998	62.639	52.1061
43.700001	62.678	51.5848
44.400002	62.736	51.0828
45.000000	62.795	50.6031
45.500000	62.839	50.1563
46.200001	62.889	49.5475
46.799999	62.931	49.0907
47.500000	62.990	48.5712
48.200001	63.051	47.9893
48.700001	63.088	47.5565
49.400002	63.133	46.9915
50.000000	63.169	46.5491
50.799999	63.217	45.9993
51.500000	63.259	45.5643
52.200001	63.306	45.1376
53.000000	63.359	44.6251
53.799999	63.408	44.1205
54.500000	63.450	43.6541
55.200001	63.478	43.1844
56.000000	63.503	42.7950
57.000000	63.565	42.3667
58.000000	63.615	41.7754
59.000000	63.658	41.3467
60.000000	63.723	40.7751
60.799999	63.744	40.2370
61.500000	63.754	39.9182
62.200001	63.781	39.6607
63.000000	63.819	39.2844
64.000000	63.849	38.8382
65.000000	63.890	38.4747
66.000000	63.925	38.0350
67.000000	63.954	37.7188
68.000000	63.991	37.3161
69.000000	64.006	36.9320
70.000000	64.032	36.5607
71.000000	64.041	36.1935
72.000000	64.078	35.9096
73.000000	64.101	35.4465
74.000000	64.128	35.2807
75.000000	64.189	34.8705
76.199997	64.200	34.4553
77.500000	64.230	34.0688
78.800003	64.229	33.9371
80.000000	64.267	33.6326
81.199997	64.275	33.3981
82.500000	64.310	32.9524
83.800003	64.320	32.7302
85.000000	64.366	32.3113
86.199997	64.361	32.0828
87.500000	64.406	31.8882
88.500000	64.415	31.6529
90.000000	64.434	31.4657
91.199997	64.471	31.2534
92.500000	64.481	30.7831
93.800003	64.487	30.6465
95.000000	64.512	30.3984
96.199997	64.532	30.2302
97.500000	64.552	29.9794
98.800003	64.571	29.8284
100.000000	64.587	29.5909
101.500000	64.600	29.4107
103.000000	64.619	29.1875
104.400002	64.641	29.0046
106.000000	64.655	28.7968
107.500000	64.680	28.6297
109.000000	64.694	28.4173
110.599998	64.708	28.2250
112.000000	64.727	28.0974
113.800003	64.749	27.8479
115.000000	64.760	27.7291
117.199997	64.786	27.5296
118.000000	64.796	27.4339
120.599998	64.820	27.1802
122.000000	64.832	27.0760
124.099998	64.853	26.8813
125.000000	64.867	26.8106
126.500000	64.882	26.6327
128.000000	64.904	26.5458
131.500000	64.949	26.2971
132.000000	64.957	26.2747
134.000000	64.989	26.1078
136.000000	65.005	25.9942
138.000000	65.026	25.8052
140.000000	65.054	25.7235
143.000000	65.091	25.5176
145.000000	65.111	25.4116
147.500000	65.139	25.2722
150.000000	65.169	25.1456
152.500000	65.197	24.9955
155.000000	65.227	24.8724
157.500000	65.253	24.7630
160.000000	65.282	24.6572
162.500000	65.291	24.5696
165.000000	65.299	24.4363
167.500000	65.310	24.3324
170.000000	65.318	24.2470
172.500000	65.330	24.1695
175.000000	65.341	24.0727
177.500000	65.353	23.9604
180.000000	65.361	23.9059
182.500000	65.372	23.8265
185.000000	65.385	23.7258
187.500000	65.392	23.6802
190.000000	65.401	23.5926
192.500000	65.406	23.5631
195.000000	65.414	23.4667
197.500000	65.426	23.4322
200.000000	65.434	23.3633
203.000000	65.450	23.2814
206.000000	65.463	23.2163
209.000000	65.481	23.1795
212.000000	65.492	23.1191
214.000000	65.501	23.0756
218.000000	65.520	23.0244
220.000000	65.532	22.9615
224.000000	65.545	22.9028
227.000000	65.559	22.8466
230.000000	65.575	22.8085
233.000000	65.588	22.7980
236.000000	65.606	22.7750
240.000000	65.616	22.6868
243.000000	65.627	22.6610
247.000000	65.643	22.6292
250.000000	65.648	22.6241
254.000000	65.665	22.5673
258.000000	65.682	22.5507
262.000000	65.698	22.5329
265.000000	65.706	22.5468
269.000000	65.719	22.5061
272.000000	65.723	22.5127
276.000000	65.741	22.5013
280.000000	65.758	22.4707
285.000000	65.771	22.4719
290.000000	65.785	22.4978
295.000000	65.797	22.4893
300.000000	65.812	22.5215
304.000000	65.820	22.5108
307.000000	65.826	22.5165
311.000000	65.838	22.5450
315.000000	65.845	22.5915
320.000000	65.857	22.6189
325.000000	65.869	22.6660
330.000000	65.880	22.6779
335.000000	65.895	22.7329
340.000000	65.900	22.7895
345.000000	65.914	22.8225
350.000000	65.923	22.8864
355.000000	65.936	22.9047
360.000000	65.948	22.9903
365.000000	65.953	23.0062
370.000000	65.961	23.0908
375.000000	65.971	23.1332
382.000000	65.984	23.2060
387.000000	65.993	23.2501
395.000000	65.999	23.3730
400.000000	66.010	23.4463
406.000000	66.019	23.5293
412.000000	66.024	23.5954
418.000000	66.032	23.6870
425.000000	66.038	23.7719
431.000000	66.042	23.8697
437.000000	66.046	23.9973
444.000000	66.052	24.1356
450.000000	66.056	24.2331
455.000000	66.059	24.3258
462.000000	66.066	24.4841
468.000000	66.074	24.5984
475.000000	66.079	24.7176
482.000000	66.079	24.8787
487.000000	66.077	24.9708
494.000000	66.077	25.1660
500.000000	66.081	25.3001
508.000000	66.086	25.4888
515.000000	66.090	25.6870
522.000000	66.092	25.8450
530.000000	66.099	26.0420
538.000000	66.102	26.2872
545.000000	66.104	26.5101
552.000000	66.106	26.6934
560.000000	66.109	26.9337
570.000000	66.108	27.2466
580.000000	66.113	27.5870
590.000000	66.116	27.9152
600.000000	66.112	28.2619
608.000000	66.119	28.5510
615.000000	66.121	28.8279
622.000000	66.117	29.0695
630.000000	66.120	29.3906
640.000000	66.122	29.7650
650.000000	66.127	30.2027
660.000000	66.132	30.6458
670.000000	66.136	31.0816
680.000000	66.140	31.4906
690.000000	66.144	31.9736
700.000000	66.153	32.4739
710.000000	66.157	32.9670
720.000000	66.162	33.4895
730.000000	66.171	34.0287
740.000000	66.183	34.5053
750.000000	66.191	35.0824
762.000000	66.204	35.7505
775.000000	66.216	36.5455
788.000000	66.234	37.3345
800.000000	66.248	38.1239
812.000000	66.262	38.9285
825.000000	66.288	39.9151
838.000000	66.326	40.9400
850.000000	66.387	41.9123
862.000000	66.461	42.7310
875.000000	66.546	43.3914
885.000000	66.593	43.9031
900.000000	66.654	44.6803
912.000000	66.702	45.3421
925.000000	66.766	46.1477
938.000000	66.833	46.8921
950.000000	66.901	47.5433
962.000000	66.971	48.2086
975.000000	67.057	48.9075
988.000000	67.135	49.5827
1000.000000	67.211	50.2326
1015.000000	67.332	50.8322
1030.000000	67.457	51.4902
1044.000000	67.568	52.0646
1060.000000	67.698	52.6972
1075.000000	67.818	53.2872
1090.000000	67.937	53.8325
1106.000000	68.064	54.3099
1120.000000	68.174	54.7619
1138.000000	68.317	55.3439
1150.000000	68.409	55.6497
1172.000000	68.574	56.2547
1180.000000	68.630	56.4657
1206.000000	68.822	57.1810
1220.000000	68.925	57.5084
1241.000000	69.077	57.9929
1250.000000	69.145	58.2062
1265.000000	69.223	58.5817
1280.000000	69.298	58.9128
1315.000000	69.477	59.7051
1320.000000	69.503	59.8273
1340.000000	69.604	60.2739
1360.000000	69.705	60.7106
1380.000000	69.809	61.1776
1400.000000	69.908	61.6637
1430.000000	70.073	62.2922
1450.000000	70.183	62.7261
1475.000000	70.322	63.3031
1500.000000	70.470	63.8245
1525.000000	70.618	64.2790
1550.000000	70.774	64.7532
1575.000000	70.928	65.2019
1600.000000	71.087	65.5542
1625.000000	71.288	65.8747
1650.000000	71.492	66.1612
1675.000000	71.692	66.3589
1700.000000	71.903	66.5174
1725.000000	72.110	66.5811
1750.000000	72.319	66.5442
1775.000000	72.520	66.4488
1800.000000	72.723	66.2114
1825.000000	72.919	65.8855
1850.000000	73.107	65.4466
1875.000000	73.291	64.9249
1900.000000	73.475	64.2098
1925.000000	73.654	63.3692
1950.000000	73.829	62.4173
1975.000000	73.998	61.3167
2000.000000	74.166	60.1433
2030.000000	74.364	58.4044
2060.000000	74.555	56.5183
2090.000000	74.735	54.4553
2120.000000	74.893	52.2423
2140.000000	74.980	50.7185
2180.000000	75.122	47.4876
2200.000000	75.174	45.8274
2240.000000	75.241	42.4334
2270.000000	75.259	39.9100
2300.000000	75.252	37.4410
2330.000000	75.223	35.0596
2360.000000	75.173	32.7844
2400.000000	75.081	30.0042
2430.000000	74.993	28.1112
2470.000000	74.865	25.8583
2500.000000	74.759	24.4045
2540.000000	74.607	22.7294
2580.000000	74.458	21.3527
2620.000000	74.304	20.2335
2650.000000	74.192	19.5850
2690.000000	74.043	18.8916
2720.000000	73.936	18.4763
2760.000000	73.800	18.0586
2800.000000	73.670	17.8189
2850.000000	73.518	17.6751
2900.000000	73.376	17.7097
2950.000000	73.252	17.9038
3000.000000	73.147	18.2680
3040.000000	73.061	18.7461
3070.000000	73.004	19.2133
3110.000000	72.943	20.0463
3150.000000	72.907	21.0933
3200.000000	72.924	22.7477
3250.000000	73.028	24.7241
3300.000000	73.252	26.7120
3350.000000	73.606	28.3334
3400.000000	74.044	29.0719
3450.000000	74.515	28.7784
3500.000000	74.958	27.3613
3550.000000	75.347	24.9144
3600.000000	75.659	21.6930
3650.000000	75.892	17.8868
3700.000000	76.058	13.5564
3750.000000	76.149	8.7363
3820.000000	76.159	1.2056
3870.000000	76.082	-4.4531
3950.000000	75.819	-13.1053
4000.000000	75.561	-17.7820
4060.000000	75.157	-22.4046
4120.000000	74.661	-25.9924
4180.000000	74.098	-28.6207
4250.000000	73.405	-30.5897
4310.000000	72.804	-31.5194
4370.000000	72.230	-31.9011
4440.000000	71.605	-31.9673
4500.000000	71.112	-31.8162
4550.000000	70.732	-31.5458
4620.000000	70.268	-31.0178
4680.000000	69.943	-30.6681
4750.000000	69.609	-30.5680
4820.000000	69.294	-31.1169
4870.000000	69.041	-32.1008
4940.000000	68.577	-33.9721
5000.000000	68.002	-35.4667
5080.000000	66.993	-36.3688
5150.000000	65.998	-35.3631
5220.000000	65.031	-32.7932
5300.000000	64.089	-28.7097
5380.000000	63.342	-24.0428
5450.000000	62.808	-19.9137
5520.000000	62.363	-15.7826
5600.000000	61.938	-11.0288
5700.000000	61.496	-5.4731
5800.000000	61.174	0.1790
5900.000000	60.907	5.8006
6000.000000	60.714	11.9132
6080.000000	60.762	17.6196
6150.000000	61.056	20.8318
6220.000000	61.126	23.1813
6300.000000	61.161	26.3200
6400.000000	61.353	30.8182
6500.000000	61.622	35.4295
6600.000000	62.029	39.9238
6700.000000	62.525	44.2106
6800.000000	63.082	48.2054
6900.000000	63.744	51.9159
7000.000000	64.526	55.1700
7100.000000	65.440	58.2021
7200.000000	66.474	60.4317
7300.000000	67.659	61.7401
7400.000000	68.972	61.6182
7500.000000	70.391	59.7235
7620.000000	72.139	54.0749
7750.000000	73.734	42.5492
7880.000000	74.510	26.3776
8000.000000	74.439	11.2588
8120.000000	73.842	-0.5314
8250.000000	73.090	-9.2803
8380.000000	72.512	-15.8359
8500.000000	72.170	-21.6669
8620.000000	71.988	-28.7616
8750.000000	71.745	-38.8566
8850.000000	71.337	-48.5311
9000.000000	70.014	-63.7781
9120.000000	68.369	-74.1872
9250.000000	66.277	-81.9362
9380.000000	64.152	-86.4740
9500.000000	62.293	-88.4969
9620.000000	60.550	-89.2050
9750.000000	58.833	-88.9998
9880.000000	57.335	-87.9781
10000.000000	55.996	-87.0905
10150.000000	54.613	-85.4118
10300.000000	53.363	-84.5567
10440.000000	52.264	-84.3018
10600.000000	51.019	-84.3596
10750.000000	49.778	-85.8270
10900.000000	48.396	-89.5161
11060.000000	46.580	-94.7690
11200.000000	44.565	-101.7587
11380.000000	40.978	-114.4726
11500.000000	37.675	-130.9067
11720.000000	34.126	153.9658
11800.000000	36.051	124.0966
12060.000000	41.674	91.3798
12200.000000	43.398	82.5332
12410.000000	45.416	77.1753
12500.000000	45.963	75.7838
12650.000000	47.260	75.8274
12800.000000	48.626	75.7736
13150.000000	53.015	69.4494
13200.000000	53.750	65.9725
13400.000000	56.239	44.5903
13600.000000	55.695	16.7633
13800.000000	53.358	2.2782
14000.000000	51.252	-0.7269
14300.000000	48.998	1.5007
14500.000000	48.008	6.0442
14750.000000	47.305	13.2238
15000.000000	47.271	22.0936
15250.000000	47.724	30.7812
15500.000000	48.638	39.4387
15750.000000	50.403	44.7054
16000.000000	52.839	43.3225
16250.000000	55.809	34.9603
16500.000000	57.452	16.0254
16750.000000	57.132	-2.1138
17000.000000	55.937	-10.9443
17250.000000	55.008	-13.1886
17500.000000	54.709	-12.4755
17750.000000	54.805	-12.9313
18000.000000	55.117	-16.1832
18250.000000	55.053	-22.0865
18500.000000	54.441	-28.3359
18750.000000	53.158	-32.6699
19000.000000	51.897	-32.5438
19250.000000	50.931	-29.3335
19500.000000	50.374	-25.8121
19750.000000	50.468	-27.1886
