* Measurement data measured by REW V5.20.13
* Source: EXCL: Microphone (USB Sound Device        ), MICROPHONE (Master Volume), R, volume: 0.250
* Format: 256k Log Swept Sine, 1 sweep at -6.0 dBFS with no timing reference
* Dated: Sep 14, 2023 6:05:12 PM
* REW Settings:
*  C-weighting compensation: Off
*  Target level: 75.0 dB
* Note: ; 
* Measurement: n.Gray f.Blue Foam R
* Smoothing: None
* Frequency Step: 1/48 octave
* Start Frequency: 1.000 Hz
*
* Freq(Hz)	SPL(dB)	Phase(degrees)
1.000000	59.266	-85.6249
1.015000	59.098	-87.2892
1.030000	58.929	-88.9932
1.044000	58.771	-90.6218
1.060000	58.589	-92.5310
1.075000	58.417	-94.3702
1.090000	58.245	-96.2596
1.106000	58.060	-98.3320
1.120000	57.891	-100.1865
1.138000	57.663	-102.6235
1.150000	57.505	-104.2802
1.172000	57.207	-107.3813
1.180000	57.095	-108.5289
1.206000	56.726	-112.3290
1.220000	56.524	-114.4182
1.241000	56.218	-117.6055
1.250000	56.087	-118.9904
1.265000	55.868	-121.3230
1.280000	55.651	-123.6849
1.315000	55.154	-129.3030
1.320000	55.085	-130.1172
1.340000	54.814	-133.4009
1.360000	54.553	-136.7258
1.380000	54.306	-140.0888
1.400000	54.075	-143.4872
1.430000	53.762	-148.6445
1.450000	53.579	-152.1183
1.475000	53.383	-156.5125
1.500000	53.217	-161.0991
1.525000	53.076	-165.8791
1.550000	52.959	-170.8152
1.575000	52.863	-175.8700
1.600000	52.786	178.9937
1.625000	52.725	173.8134
1.650000	52.678	168.6262
1.675000	52.642	163.4695
1.700000	52.616	158.3806
1.725000	52.596	153.3969
1.750000	52.581	148.5555
1.775000	52.568	143.8940
1.800000	52.554	139.4494
1.825000	52.538	135.2592
1.850000	52.527	131.3154
1.875000	52.540	127.5248
1.900000	52.573	123.8757
1.925000	52.623	120.3607
1.950000	52.684	116.9726
1.975000	52.752	113.7040
2.000000	52.821	110.5474
2.030000	52.900	106.8970
2.060000	52.966	103.3847
2.090000	53.012	99.9978
2.120000	53.029	96.7234
2.140000	53.020	94.5968
2.180000	52.944	90.4616
2.200000	52.872	88.4435
2.240000	52.730	84.0897
2.270000	52.636	80.5519
2.300000	52.539	76.9226
2.330000	52.425	73.3298
2.360000	52.282	69.9014
2.400000	52.023	65.8068
2.430000	51.761	63.2591
2.470000	51.297	60.8030
2.500000	50.846	59.8325
2.540000	50.082	59.9434
2.580000	49.071	61.9679
2.620000	47.551	66.2169
2.650000	46.126	70.6600
2.690000	43.985	77.8966
2.720000	42.293	84.0616
2.760000	40.057	92.9026
2.800000	38.004	102.0396
2.850000	35.954	113.1887
2.900000	34.792	123.2124
2.950000	34.847	131.4783
3.000000	36.169	139.5312
3.040000	37.929	145.9611
3.070000	39.546	150.6662
3.110000	41.958	156.6492
3.150000	44.504	162.1465
3.200000	47.611	168.0799
3.250000	50.318	172.6655
3.300000	52.290	175.5749
3.350000	53.653	176.4267
3.400000	54.702	175.4383
3.450000	55.504	173.0978
3.500000	56.126	169.8936
3.550000	56.637	166.3139
3.600000	57.103	162.8469
3.650000	57.593	159.9808
3.700000	58.115	157.8103
3.750000	58.564	155.6486
3.820000	59.087	152.6248
3.870000	59.398	150.5011
3.950000	59.823	147.2355
4.000000	60.060	145.3167
4.060000	60.325	143.1587
4.120000	60.539	141.0815
4.180000	60.704	139.0995
4.250000	60.850	136.9484
4.310000	60.947	135.2783
4.370000	61.030	133.8009
4.440000	61.109	132.3412
4.500000	61.139	131.2806
4.550000	61.145	130.5290
4.620000	61.137	129.6801
4.680000	61.131	129.1427
4.750000	61.141	128.7396
4.820000	61.168	128.6370
4.870000	61.184	128.7776
4.940000	61.210	129.1883
5.000000	61.245	129.6619
5.080000	61.326	130.3386
5.150000	61.443	130.8730
5.220000	61.604	131.5167
5.300000	61.827	132.3531
5.380000	62.081	133.1418
5.450000	62.317	133.6654
5.520000	62.559	133.9336
5.600000	62.865	134.0122
5.700000	63.276	133.8385
5.800000	63.682	133.3903
5.900000	64.049	132.6796
6.000000	64.397	131.6223
6.080000	64.661	130.6000
6.150000	64.875	129.6454
6.220000	65.071	128.6910
6.300000	65.270	127.5732
6.400000	65.485	126.0671
6.500000	65.671	124.5515
6.600000	65.836	123.1459
6.700000	65.971	121.8409
6.800000	66.080	120.6047
6.900000	66.179	119.4779
7.000000	66.278	118.5008
7.100000	66.368	117.6804
7.200000	66.455	116.9751
7.300000	66.551	116.3396
7.400000	66.664	115.7693
7.500000	66.786	115.2991
7.620000	66.947	114.7643
7.750000	67.139	114.0999
7.880000	67.355	113.3962
8.000000	67.562	112.6772
8.120000	67.766	111.8387
8.250000	67.991	110.8031
8.380000	68.209	109.6865
8.500000	68.393	108.6068
8.620000	68.567	107.4565
8.750000	68.741	106.2039
8.850000	68.865	105.2753
9.000000	69.031	103.8981
9.120000	69.155	102.8472
9.250000	69.283	101.7952
9.380000	69.403	100.8166
9.500000	69.514	99.9651
9.620000	69.629	99.1657
9.750000	69.757	98.3595
9.880000	69.878	97.5719
10.000000	69.981	96.8494
10.150000	70.102	95.9619
10.300000	70.216	95.0544
10.440000	70.317	94.1840
10.600000	70.424	93.1794
10.750000	70.518	92.2295
10.900000	70.605	91.2776
11.060000	70.688	90.2966
11.200000	70.753	89.4630
11.380000	70.830	88.4409
11.500000	70.878	87.7985
11.720000	70.961	86.6781
11.800000	70.992	86.2859
12.060000	71.088	85.0583
12.200000	71.137	84.4002
12.410000	71.210	83.4180
12.500000	71.246	82.9926
12.650000	71.313	82.2768
12.800000	71.379	81.5623
13.150000	71.510	79.9167
13.200000	71.526	79.6886
13.400000	71.587	78.7963
13.600000	71.643	77.9361
13.800000	71.696	77.1118
14.000000	71.747	76.3009
14.300000	71.821	75.0958
14.500000	71.869	74.2769
14.750000	71.922	73.2366
15.000000	71.967	72.1814
15.250000	72.002	71.1356
15.500000	72.031	70.1171
15.750000	72.056	69.1326
16.000000	72.082	68.1820
16.250000	72.114	67.2459
16.500000	72.151	66.3149
16.750000	72.186	65.3755
17.000000	72.219	64.4335
17.250000	72.249	63.4967
17.500000	72.275	62.5774
17.750000	72.300	61.6863
18.000000	72.323	60.8221
18.250000	72.348	59.9828
18.500000	72.372	59.1573
18.750000	72.397	58.3433
19.000000	72.420	57.5382
19.250000	72.441	56.7478
19.500000	72.461	55.9767
19.750000	72.478	55.2285
20.000000	72.495	54.5030
20.299999	72.516	53.6552
20.600000	72.537	52.8256
20.900000	72.556	52.0095
21.200001	72.572	51.2086
21.400000	72.581	50.6864
21.799999	72.597	49.6688
22.000000	72.605	49.1703
22.400000	72.620	48.1819
22.700001	72.630	47.4399
23.000000	72.637	46.6989
23.299999	72.642	45.9699
23.600000	72.645	45.2612
24.000000	72.650	44.3488
24.299999	72.658	43.6755
24.700001	72.671	42.7686
25.000000	72.682	42.0732
25.400000	72.694	41.1366
25.799999	72.703	40.2189
26.200001	72.710	39.3409
26.500000	72.717	38.7063
26.900000	72.729	37.8796
27.200001	72.738	37.2668
27.600000	72.752	36.4586
28.000000	72.764	35.6656
28.500000	72.777	34.6997
29.000000	72.787	33.7615
29.500000	72.793	32.8594
30.000000	72.799	32.0012
30.400000	72.804	31.3347
30.700001	72.809	30.8355
31.100000	72.814	30.1628
31.500000	72.817	29.4876
32.000000	72.817	28.6608
32.500000	72.817	27.8616
33.000000	72.819	27.0715
33.500000	72.822	26.2742
34.000000	72.823	25.4775
34.500000	72.823	24.6991
35.000000	72.822	23.9440
35.500000	72.822	23.2057
36.000000	72.821	22.4794
36.500000	72.819	21.7695
37.000000	72.814	21.0876
37.500000	72.809	20.4407
38.200001	72.805	19.5697
38.700001	72.803	18.9412
39.500000	72.794	17.9257
40.000000	72.784	17.3161
40.599998	72.776	16.6071
41.200001	72.768	15.8907
41.799999	72.757	15.1771
42.500000	72.742	14.3846
43.099998	72.733	13.7217
43.700001	72.724	13.0504
44.400002	72.710	12.2810
45.000000	72.697	11.6515
45.500000	72.687	11.1375
46.200001	72.672	10.4245
46.799999	72.658	9.8286
47.500000	72.640	9.1578
48.200001	72.622	8.5005
48.700001	72.609	8.0333
49.400002	72.589	7.3905
50.000000	72.571	6.8591
50.799999	72.549	6.1616
51.500000	72.529	5.5540
52.200001	72.508	4.9698
53.000000	72.485	4.3140
53.799999	72.458	3.6556
54.500000	72.432	3.1217
55.200001	72.410	2.6117
56.000000	72.385	2.0042
57.000000	72.347	1.2760
58.000000	72.314	0.5814
59.000000	72.277	-0.1134
60.000000	72.241	-0.7432
60.799999	72.215	-1.2659
61.500000	72.187	-1.7121
62.200001	72.160	-2.1203
63.000000	72.134	-2.6018
64.000000	72.090	-3.2076
65.000000	72.048	-3.7509
66.000000	72.009	-4.3155
67.000000	71.967	-4.8577
68.000000	71.926	-5.3823
69.000000	71.884	-5.8909
70.000000	71.842	-6.3749
71.000000	71.802	-6.8455
72.000000	71.758	-7.3145
73.000000	71.714	-7.7575
74.000000	71.670	-8.2053
75.000000	71.623	-8.6111
76.199997	71.574	-9.1157
77.500000	71.517	-9.6422
78.800003	71.460	-10.1754
80.000000	71.407	-10.6014
81.199997	71.357	-11.0297
82.500000	71.307	-11.4497
83.800003	71.253	-11.9098
85.000000	71.202	-12.2821
86.199997	71.150	-12.6777
87.500000	71.092	-13.0784
88.500000	71.048	-13.3822
90.000000	70.985	-13.8062
91.199997	70.937	-14.1412
92.500000	70.883	-14.4865
93.800003	70.830	-14.8168
95.000000	70.777	-15.1022
96.199997	70.727	-15.3691
97.500000	70.672	-15.6682
98.800003	70.618	-15.9471
100.000000	70.569	-16.2159
101.500000	70.507	-16.5088
103.000000	70.450	-16.7999
104.400002	70.394	-17.0897
106.000000	70.326	-17.3788
107.500000	70.267	-17.6467
109.000000	70.207	-17.9070
110.599998	70.145	-18.1869
112.000000	70.089	-18.4060
113.800003	70.020	-18.6537
115.000000	69.975	-18.8170
117.199997	69.890	-19.1048
118.000000	69.859	-19.2045
120.599998	69.757	-19.4929
122.000000	69.707	-19.6439
124.099998	69.632	-19.8958
125.000000	69.599	-19.9889
126.500000	69.549	-20.1501
128.000000	69.498	-20.2938
131.500000	69.383	-20.5870
132.000000	69.367	-20.6268
134.000000	69.305	-20.7843
136.000000	69.245	-20.9261
138.000000	69.184	-21.0163
140.000000	69.124	-21.1543
143.000000	69.029	-21.3157
145.000000	68.970	-21.4110
147.500000	68.893	-21.4987
150.000000	68.825	-21.5948
152.500000	68.755	-21.6890
155.000000	68.683	-21.7834
157.500000	68.616	-21.8272
160.000000	68.547	-21.8760
162.500000	68.463	-21.8913
165.000000	68.384	-21.9108
167.500000	68.306	-21.9255
170.000000	68.230	-21.9561
172.500000	68.154	-21.9493
175.000000	68.076	-21.9185
177.500000	68.001	-21.8533
180.000000	67.928	-21.8463
182.500000	67.853	-21.8335
185.000000	67.787	-21.7971
187.500000	67.716	-21.7615
190.000000	67.651	-21.6622
192.500000	67.584	-21.6108
195.000000	67.516	-21.5417
197.500000	67.451	-21.4625
200.000000	67.384	-21.3827
203.000000	67.313	-21.3168
206.000000	67.247	-21.2068
209.000000	67.179	-21.0222
212.000000	67.112	-20.8693
214.000000	67.068	-20.8247
218.000000	66.978	-20.6434
220.000000	66.937	-20.5341
224.000000	66.856	-20.3067
227.000000	66.799	-20.1692
230.000000	66.738	-20.0193
233.000000	66.675	-19.8885
236.000000	66.622	-19.6770
240.000000	66.555	-19.4428
243.000000	66.494	-19.2546
247.000000	66.424	-18.9893
250.000000	66.377	-18.8323
254.000000	66.310	-18.5790
258.000000	66.240	-18.2650
262.000000	66.181	-17.9843
265.000000	66.137	-17.7848
269.000000	66.077	-17.5339
272.000000	66.029	-17.3343
276.000000	65.970	-17.0079
280.000000	65.909	-16.6937
285.000000	65.843	-16.2955
290.000000	65.779	-15.9204
295.000000	65.709	-15.5188
300.000000	65.644	-15.1019
304.000000	65.598	-14.7831
307.000000	65.566	-14.5265
311.000000	65.525	-14.2208
315.000000	65.474	-13.9425
320.000000	65.426	-13.5051
325.000000	65.370	-13.0211
330.000000	65.322	-12.6617
335.000000	65.279	-12.2567
340.000000	65.228	-11.8065
345.000000	65.176	-11.3452
350.000000	65.130	-10.9624
355.000000	65.090	-10.5087
360.000000	65.051	-10.0550
365.000000	65.011	-9.6522
370.000000	64.968	-9.1766
375.000000	64.926	-8.7814
382.000000	64.879	-8.2078
387.000000	64.848	-7.7305
395.000000	64.791	-7.0048
400.000000	64.754	-6.5646
406.000000	64.718	-6.0817
412.000000	64.678	-5.5436
418.000000	64.641	-5.0100
425.000000	64.612	-4.3387
431.000000	64.584	-3.8505
437.000000	64.557	-3.3448
444.000000	64.526	-2.7281
450.000000	64.497	-2.1776
455.000000	64.483	-1.7345
462.000000	64.457	-1.1082
468.000000	64.432	-0.5139
475.000000	64.405	0.0552
482.000000	64.382	0.6902
487.000000	64.365	1.1429
494.000000	64.349	1.7987
500.000000	64.324	2.3765
508.000000	64.311	3.0747
515.000000	64.280	3.7236
522.000000	64.295	4.4409
530.000000	64.244	5.1017
538.000000	64.227	6.5728
545.000000	64.325	7.4438
552.000000	64.391	7.6660
560.000000	64.371	7.8036
570.000000	64.292	8.4735
580.000000	64.203	9.5447
590.000000	64.141	10.5933
600.000000	64.112	11.5081
608.000000	64.112	12.1166
615.000000	64.128	12.6191
622.000000	64.160	13.1987
630.000000	64.187	13.9305
640.000000	64.207	14.8076
650.000000	64.243	15.7949
660.000000	64.251	16.6619
670.000000	64.282	17.5598
680.000000	64.299	18.4752
690.000000	64.331	19.3267
700.000000	64.364	20.2416
710.000000	64.396	21.1019
720.000000	64.426	22.0025
730.000000	64.459	22.8848
740.000000	64.503	23.7468
750.000000	64.542	24.6085
762.000000	64.592	25.6423
775.000000	64.646	26.8132
788.000000	64.713	27.9521
800.000000	64.775	28.9322
812.000000	64.832	29.9258
825.000000	64.898	31.0165
838.000000	64.965	32.1396
850.000000	65.033	33.1141
862.000000	65.108	34.0724
875.000000	65.192	35.0628
885.000000	65.260	35.8307
900.000000	65.357	37.0095
912.000000	65.452	37.9075
925.000000	65.547	38.8270
938.000000	65.648	39.6932
950.000000	65.743	40.5523
962.000000	65.833	41.3258
975.000000	65.945	42.2339
988.000000	66.046	43.0173
1000.000000	66.146	43.7655
1015.000000	66.307	44.5503
1030.000000	66.452	45.3657
1044.000000	66.591	46.1625
1060.000000	66.746	46.9855
1075.000000	66.895	47.6808
1090.000000	67.049	48.3155
1106.000000	67.202	48.9494
1120.000000	67.329	49.5591
1138.000000	67.494	50.3326
1150.000000	67.604	50.8900
1172.000000	67.818	51.7582
1180.000000	67.889	52.0544
1206.000000	68.136	53.0517
1220.000000	68.267	53.5797
1241.000000	68.459	54.3383
1250.000000	68.546	54.6227
1265.000000	68.666	55.1454
1280.000000	68.781	55.6567
1315.000000	69.057	56.7784
1320.000000	69.094	56.9117
1340.000000	69.250	57.5554
1360.000000	69.417	58.1369
1380.000000	69.578	58.6634
1400.000000	69.746	59.2368
1430.000000	70.000	60.0405
1450.000000	70.179	60.4652
1475.000000	70.421	60.9650
1500.000000	70.681	61.2098
1525.000000	70.937	60.5792
1550.000000	70.966	59.8068
1575.000000	70.984	60.1532
1600.000000	71.077	61.1266
1625.000000	71.180	61.8939
1650.000000	71.546	60.8862
1675.000000	72.093	63.5835
1700.000000	72.064	63.6396
1725.000000	72.482	62.5648
1750.000000	72.776	63.1404
1775.000000	73.010	62.4954
1800.000000	73.260	62.0622
1825.000000	73.497	61.3384
1850.000000	73.721	60.5007
1875.000000	73.942	59.4936
1900.000000	74.159	58.3719
1925.000000	74.374	57.0723
1950.000000	74.592	55.6424
1975.000000	74.801	54.0170
2000.000000	75.000	52.3484
2030.000000	75.199	50.0647
2060.000000	75.366	47.7012
2090.000000	75.501	45.2031
2120.000000	75.600	42.6486
2140.000000	75.649	40.9133
2180.000000	75.704	37.4461
2200.000000	75.712	35.7421
2240.000000	75.699	32.4365
2270.000000	75.661	30.1097
2300.000000	75.611	27.9474
2330.000000	75.540	25.9725
2360.000000	75.460	24.1807
2400.000000	75.342	22.0927
2430.000000	75.248	20.7635
2470.000000	75.118	19.2744
2500.000000	75.021	18.3658
2540.000000	74.901	17.3778
2580.000000	74.782	16.6295
2620.000000	74.679	16.0663
2650.000000	74.610	15.7502
2690.000000	74.527	15.4181
2720.000000	74.474	15.2184
2760.000000	74.419	15.0707
2800.000000	74.380	14.9579
2850.000000	74.346	14.9014
2900.000000	74.336	14.8829
2950.000000	74.348	14.9006
3000.000000	74.394	14.9536
3040.000000	74.463	14.9313
3070.000000	74.524	14.9036
3110.000000	74.585	14.7075
3150.000000	74.784	14.2423
3200.000000	75.234	15.2607
3250.000000	74.915	10.9552
3300.000000	74.814	10.1815
3350.000000	75.638	8.1172
3400.000000	75.877	6.4655
3450.000000	76.157	2.9404
3500.000000	76.254	-1.2150
3550.000000	76.254	-5.9644
3600.000000	76.163	-10.9260
3650.000000	75.994	-15.7948
3700.000000	75.751	-20.3000
3750.000000	75.431	-24.2906
3820.000000	74.875	-28.9116
3870.000000	74.406	-31.5258
3950.000000	73.577	-34.4415
4000.000000	73.032	-35.5250
4060.000000	72.367	-36.2200
4120.000000	71.711	-36.3832
4180.000000	71.091	-36.2096
4250.000000	70.421	-35.6130
4310.000000	69.907	-34.8693
4370.000000	69.442	-33.8610
4440.000000	68.987	-32.9218
4500.000000	68.682	-32.2461
4550.000000	68.471	-32.0172
4620.000000	68.230	-32.3859
4680.000000	68.006	-33.5473
4750.000000	67.680	-35.7086
4820.000000	67.182	-38.3335
4870.000000	66.698	-40.3289
4940.000000	65.827	-42.5883
5000.000000	64.910	-43.4918
5080.000000	63.600	-42.6622
5150.000000	62.459	-40.0984
5220.000000	61.397	-36.3285
5300.000000	60.346	-31.0937
5380.000000	59.506	-25.1967
5450.000000	58.887	-19.8793
5520.000000	58.356	-14.4708
5600.000000	57.843	-8.4995
5700.000000	57.443	-0.9813
5800.000000	57.065	5.9777
5900.000000	56.831	13.1447
6000.000000	56.705	19.9815
6080.000000	56.690	25.5154
6150.000000	56.771	30.1393
6220.000000	56.886	34.3973
6300.000000	57.038	38.8347
6400.000000	57.318	44.2762
6500.000000	57.666	49.6307
6600.000000	58.122	55.0784
6700.000000	58.608	60.0491
6800.000000	59.231	64.9344
6900.000000	59.907	69.5214
7000.000000	60.686	73.8657
7100.000000	61.581	77.7687
7200.000000	62.584	81.1608
7300.000000	63.707	83.8220
7400.000000	64.983	85.7050
7500.000000	66.411	86.3958
7620.000000	68.299	84.6108
7750.000000	70.394	78.3403
7880.000000	72.172	66.3642
8000.000000	73.032	51.4180
8120.000000	72.873	36.7366
8250.000000	72.106	25.0532
8380.000000	71.238	18.0074
8500.000000	70.590	14.0209
8620.000000	70.178	11.1963
8750.000000	69.995	8.2069
8850.000000	70.013	5.3233
9000.000000	70.236	-0.9738
9120.000000	70.419	-8.4763
9250.000000	70.375	-19.2385
9380.000000	69.822	-31.7419
9500.000000	68.781	-42.3987
9620.000000	67.398	-50.8448
9750.000000	65.752	-57.0819
9880.000000	64.162	-61.1587
10000.000000	62.785	-63.2377
10150.000000	61.321	-64.6917
10300.000000	60.027	-65.1970
10440.000000	59.004	-65.5162
10600.000000	57.955	-66.4020
10750.000000	57.078	-67.5065
10900.000000	56.211	-69.5826
11060.000000	55.214	-73.1361
11200.000000	54.250	-76.7010
11380.000000	52.704	-85.0790
11500.000000	51.134	-92.3022
11720.000000	46.753	-114.7031
11800.000000	44.261	-130.2645
12060.000000	45.133	117.1428
12200.000000	50.514	87.4218
12410.000000	56.011	54.2614
12500.000000	57.406	39.1294
12650.000000	58.052	14.0887
12800.000000	57.142	-3.6896
13150.000000	54.172	-18.4617
13200.000000	53.871	-18.9053
13400.000000	52.713	-19.3114
13600.000000	51.451	-17.6150
13800.000000	51.325	-7.9802
14000.000000	51.671	-4.0313
14300.000000	52.662	-0.2904
14500.000000	53.700	-1.5217
14750.000000	55.134	-10.6812
15000.000000	55.204	-29.4063
15250.000000	52.962	-44.1461
15500.000000	50.133	-48.0305
15750.000000	47.718	-43.8472
16000.000000	46.113	-37.2520
16250.000000	44.845	-27.6071
16500.000000	44.375	-18.7304
16750.000000	44.208	-8.2773
17000.000000	44.546	0.2070
17250.000000	45.134	9.8809
17500.000000	45.795	17.2231
17750.000000	46.987	18.0352
18000.000000	47.948	17.4703
18250.000000	48.561	14.0630
18500.000000	48.976	6.3789
18750.000000	48.588	-5.6110
19000.000000	46.470	-14.5264
19250.000000	44.381	-27.1603
19500.000000	41.587	-43.8042
19750.000000	38.358	-69.5734
