* Measurement data measured by REW V5.20.13
* Source: C:\Users\marcu\OneDrive\Desktop\Fix\ n.Green f.Red Foam R.txt
* Format: Comma/Tab/Space delimited data
* Dated: Jul 25, 2023 10:07:01 PM
* REW Settings:
*  C-weighting compensation: Off
*  Target level: 75.0 dB
* Note: ; Measurement imported from C:\Users\marcu\OneDrive\Desktop\Fix\ n.Green f.Red Foam R.txt Format: Comma/Tab/Space delimited data 54613 values loaded, 0 Hz to 20,000 Hz 
* Measurement:  n.Green f.Red Foam R
* Smoothing: None
* Frequency Step: 1/48 octave
* Start Frequency: 1.000 Hz
*
* Freq(Hz)	SPL(dB)	Phase(degrees)
1.000000	82.850	-59.4098
1.015000	82.677	-60.3024
1.030000	82.498	-61.1955
1.044000	82.325	-62.0297
1.060000	82.120	-62.9837
1.075000	81.920	-63.8788
1.090000	81.713	-64.7746
1.106000	81.488	-65.7744
1.120000	81.311	-66.9193
1.138000	81.114	-68.7750
1.150000	80.998	-70.2164
1.172000	80.809	-73.1970
1.180000	80.746	-74.3668
1.206000	80.550	-78.3746
1.220000	80.444	-80.6033
1.241000	80.275	-83.9390
1.250000	80.197	-85.3394
1.265000	80.054	-87.5983
1.280000	79.894	-89.7242
1.315000	79.422	-93.9140
1.320000	79.342	-94.3999
1.340000	78.979	-95.9950
1.360000	78.544	-96.9523
1.380000	78.028	-97.1647
1.400000	77.419	-96.5250
1.430000	76.310	-93.7339
1.450000	75.425	-90.4959
1.475000	74.113	-84.6207
1.500000	72.384	-75.9378
1.525000	70.262	-64.6670
1.550000	67.829	-51.2594
1.575000	65.163	-36.1658
1.600000	62.344	-19.8375
1.625000	59.453	-2.7255
1.650000	56.570	14.7194
1.675000	53.775	32.0459
1.700000	51.147	48.8032
1.725000	48.767	64.5402
1.750000	46.714	78.8057
1.775000	45.069	91.1489
1.800000	43.912	101.1187
1.825000	43.322	108.2640
1.850000	43.369	112.4314
1.875000	44.026	114.2529
1.900000	45.213	114.0281
1.925000	46.848	112.0335
1.950000	48.851	108.5455
1.975000	51.140	103.8406
2.000000	53.635	98.1950
2.030000	56.786	90.5681
2.060000	59.976	82.4624
2.090000	63.065	74.3558
2.120000	65.914	66.7257
2.140000	67.610	62.1396
2.180000	70.328	54.8060
2.200000	71.158	52.3344
2.240000	71.245	48.5306
2.270000	71.394	46.1421
2.300000	71.599	44.0882
2.330000	71.845	42.3119
2.360000	72.116	40.7563
2.400000	72.491	38.9268
2.430000	72.763	37.6644
2.470000	73.083	36.0191
2.500000	73.273	34.7397
2.540000	73.429	32.8648
2.580000	73.458	30.7067
2.620000	73.440	28.4724
2.650000	73.400	26.7931
2.690000	73.307	24.5595
2.720000	73.203	22.8949
2.760000	73.012	20.6999
2.800000	72.755	18.5439
2.850000	72.331	15.9230
2.900000	71.779	13.4067
2.950000	71.069	10.7886
3.000000	70.084	6.4017
3.040000	69.136	2.0117
3.070000	68.363	-1.3959
3.110000	67.291	-5.6055
3.150000	66.218	-8.8767
3.200000	64.950	-10.7207
3.250000	63.856	-8.9631
3.300000	63.032	-2.4076
3.350000	62.384	11.0960
3.400000	61.821	30.8607
3.450000	61.369	54.4732
3.500000	61.058	79.5206
3.550000	60.916	103.5897
3.600000	60.971	124.2676
3.650000	61.250	139.1412
3.700000	61.842	146.9232
3.750000	62.831	149.7309
3.820000	64.657	147.6825
3.870000	66.101	143.5511
3.950000	68.300	135.5841
4.000000	69.406	131.5949
4.060000	70.302	129.1303
4.120000	70.916	126.9163
4.180000	71.331	124.6030
4.250000	71.631	121.9125
4.310000	71.788	119.7284
4.370000	71.904	117.7627
4.440000	72.013	115.7580
4.500000	72.013	114.0821
4.550000	71.953	112.7769
4.620000	71.801	111.2160
4.680000	71.624	110.2431
4.750000	71.391	109.6867
4.820000	71.099	109.7857
4.870000	70.821	110.1652
4.940000	70.387	111.1353
5.000000	70.017	112.3830
5.080000	69.603	114.6589
5.150000	69.380	117.2849
5.220000	69.238	120.9766
5.300000	69.155	126.0946
5.380000	69.170	131.3974
5.450000	69.275	135.5541
5.520000	69.482	138.7718
5.600000	69.897	141.8118
5.700000	70.585	144.8706
5.800000	71.296	147.0073
5.900000	71.875	148.0788
6.000000	72.397	147.8593
6.080000	72.781	147.0385
6.150000	73.077	146.0904
6.220000	73.324	145.1254
6.300000	73.539	143.9386
6.400000	73.724	142.0843
6.500000	73.834	140.0984
6.600000	73.888	138.2821
6.700000	73.870	136.5930
6.800000	73.786	134.9642
6.900000	73.670	133.5354
7.000000	73.550	132.4361
7.100000	73.394	131.6488
7.200000	73.228	131.0984
7.300000	73.091	130.7180
7.400000	73.001	130.5320
7.500000	72.938	130.6086
7.620000	72.909	130.7421
7.750000	72.957	130.5834
7.880000	73.093	130.2576
8.000000	73.261	129.6945
8.120000	73.440	128.7088
8.250000	73.668	127.1868
8.380000	73.899	125.3678
8.500000	74.089	123.5104
8.620000	74.268	121.4039
8.750000	74.447	119.0627
8.850000	74.572	117.3402
9.000000	74.737	114.7570
9.120000	74.863	112.8103
9.250000	75.005	110.9299
9.380000	75.145	109.2344
9.500000	75.287	107.8144
9.620000	75.452	106.5475
9.750000	75.650	105.3440
9.880000	75.858	104.2098
10.000000	76.057	103.1940
10.150000	76.316	101.9908
10.300000	76.572	100.7759
10.440000	76.812	99.6153
10.600000	77.076	98.3111
10.750000	77.304	97.1218
10.900000	77.516	95.9761
11.060000	77.723	94.8948
11.200000	77.886	94.0593
11.380000	78.084	93.1567
11.500000	78.210	92.6842
11.720000	78.435	91.9988
11.800000	78.520	91.7919
12.060000	78.795	91.2477
12.200000	78.944	90.9400
12.410000	79.168	90.4602
12.500000	79.266	90.2236
12.650000	79.435	89.7881
12.800000	79.598	89.3246
13.150000	79.914	88.1717
13.200000	79.954	88.0128
13.400000	80.093	87.3952
13.600000	80.216	86.8249
13.800000	80.324	86.3171
14.000000	80.427	85.8287
14.300000	80.576	85.1018
14.500000	80.672	84.5656
14.750000	80.783	83.8212
15.000000	80.882	82.9923
15.250000	80.967	82.1133
15.500000	81.043	81.2209
15.750000	81.115	80.3313
16.000000	81.192	79.4530
16.250000	81.284	78.5575
16.500000	81.389	77.6290
16.750000	81.501	76.6429
17.000000	81.616	75.6031
17.250000	81.731	74.5244
17.500000	81.845	73.4285
17.750000	81.955	72.3544
18.000000	82.062	71.3223
18.250000	82.166	70.3537
18.500000	82.270	69.4672
18.750000	82.375	68.6646
19.000000	82.482	67.9472
19.250000	82.595	67.2992
19.500000	82.712	66.6960
19.750000	82.832	66.1175
20.000000	82.952	65.5316
20.299999	83.089	64.8167
20.600000	83.210	64.1082
20.900000	83.309	63.4510
21.200001	83.390	62.9020
21.400000	83.439	62.6097
21.799999	83.541	62.1545
22.000000	83.596	61.9491
22.400000	83.716	61.4643
22.700001	83.803	60.9740
23.000000	83.874	60.3794
23.299999	83.925	59.7499
23.600000	83.958	59.1527
24.000000	83.993	58.4707
24.299999	84.026	58.0252
24.700001	84.091	57.4172
25.000000	84.151	56.8767
25.400000	84.233	56.0125
25.799999	84.301	55.0586
26.200001	84.354	54.1428
26.500000	84.392	53.5363
26.900000	84.450	52.8421
27.200001	84.506	52.3703
27.600000	84.595	51.7311
28.000000	84.690	51.0095
28.500000	84.788	50.0013
29.000000	84.837	49.0814
29.500000	84.850	48.5214
30.000000	84.878	48.3868
30.400000	84.939	48.3972
30.700001	85.006	48.3352
31.100000	85.101	48.0543
31.500000	85.178	47.5767
32.000000	85.231	46.9064
32.500000	85.253	46.3653
33.000000	85.276	45.9673
33.500000	85.311	45.5924
34.000000	85.353	45.1764
34.500000	85.396	44.7412
35.000000	85.445	44.2861
35.500000	85.496	43.7719
36.000000	85.538	43.2158
36.500000	85.567	42.7119
37.000000	85.595	42.3281
37.500000	85.635	42.0130
38.200001	85.704	41.4987
38.700001	85.741	41.0667
39.500000	85.772	40.4924
40.000000	85.792	40.2603
40.599998	85.830	40.0312
41.200001	85.883	39.7312
41.799999	85.934	39.2978
42.500000	85.964	38.7186
43.099998	85.972	38.3466
43.700001	85.991	38.1209
44.400002	86.038	37.8251
45.000000	86.076	37.4492
45.500000	86.093	37.1507
46.200001	86.113	36.8595
46.799999	86.144	36.6364
47.500000	86.179	36.3043
48.200001	86.201	35.9857
48.700001	86.217	35.7951
49.400002	86.244	35.5249
50.000000	86.264	35.2727
50.799999	86.286	34.9670
51.500000	86.310	34.7604
52.200001	86.343	34.5524
53.000000	86.382	34.2238
53.799999	86.405	33.8983
54.500000	86.425	33.7053
55.200001	86.451	33.5128
56.000000	86.474	33.2867
57.000000	86.505	33.1047
58.000000	86.541	32.8800
59.000000	86.576	32.6880
60.000000	86.611	32.3248
60.799999	86.599	32.0693
61.500000	86.596	32.0592
62.200001	86.622	31.9908
63.000000	86.639	31.7208
64.000000	86.637	31.5579
65.000000	86.673	31.3926
66.000000	86.696	31.0905
67.000000	86.717	30.9130
68.000000	86.742	30.7390
69.000000	86.768	30.6322
70.000000	86.795	30.4608
71.000000	86.798	30.3425
72.000000	86.815	30.3453
73.000000	86.839	30.2109
74.000000	86.843	30.1156
75.000000	86.869	30.1636
76.199997	86.938	29.9357
77.500000	86.922	29.5217
78.800003	86.946	29.6722
80.000000	86.947	29.4137
81.199997	86.955	29.6280
82.500000	86.991	29.4313
83.800003	87.007	29.3390
85.000000	87.032	29.1789
86.199997	87.043	28.9712
87.500000	87.060	29.1106
88.500000	87.112	28.9348
90.000000	87.092	28.9332
91.199997	87.143	29.0164
92.500000	87.152	28.9406
93.800003	87.175	28.9674
95.000000	87.196	28.9202
96.199997	87.206	28.8160
97.500000	87.218	28.8555
98.800003	87.246	28.8325
100.000000	87.265	28.8099
101.500000	87.285	28.8177
103.000000	87.317	28.8477
104.400002	87.339	28.7994
106.000000	87.359	28.8466
107.500000	87.393	28.9083
109.000000	87.421	28.8969
110.599998	87.428	28.8879
112.000000	87.447	29.0276
113.800003	87.475	28.9921
115.000000	87.500	28.9456
117.199997	87.553	28.9304
118.000000	87.549	28.8260
120.599998	87.605	29.0368
122.000000	87.609	29.1791
124.099998	87.646	29.2022
125.000000	87.651	29.2903
126.500000	87.683	29.3588
128.000000	87.717	29.4558
131.500000	87.784	29.4510
132.000000	87.794	29.4785
134.000000	87.843	29.6016
136.000000	87.886	29.6890
138.000000	87.917	29.8148
140.000000	87.977	29.9337
143.000000	88.022	29.9457
145.000000	88.058	30.0049
147.500000	88.105	30.1130
150.000000	88.164	30.2555
152.500000	88.213	30.3304
155.000000	88.264	30.4146
157.500000	88.316	30.5225
160.000000	88.361	30.6432
162.500000	88.403	30.7307
165.000000	88.446	30.8237
167.500000	88.480	30.8841
170.000000	88.523	31.0496
172.500000	88.562	31.1517
175.000000	88.597	31.2355
177.500000	88.638	31.3718
180.000000	88.677	31.4118
182.500000	88.719	31.4892
185.000000	88.752	31.5825
187.500000	88.787	31.6820
190.000000	88.826	31.7294
192.500000	88.866	31.8169
195.000000	88.902	31.9387
197.500000	88.938	31.9891
200.000000	88.979	32.0604
203.000000	89.036	32.1209
206.000000	89.089	32.1799
209.000000	89.138	32.3115
212.000000	89.195	32.3552
214.000000	89.228	32.3929
218.000000	89.290	32.5432
220.000000	89.327	32.5454
224.000000	89.394	32.5774
227.000000	89.444	32.7146
230.000000	89.509	32.7293
233.000000	89.552	32.7082
236.000000	89.582	32.8013
240.000000	89.672	32.8376
243.000000	89.713	32.8144
247.000000	89.776	33.0186
250.000000	89.843	33.0134
254.000000	89.871	32.9843
258.000000	89.971	33.0292
262.000000	90.007	33.0073
265.000000	90.054	33.0773
269.000000	90.140	33.1279
272.000000	90.185	33.0769
276.000000	90.242	33.0982
280.000000	90.297	33.0877
285.000000	90.376	33.0893
290.000000	90.453	33.0702
295.000000	90.517	33.0655
300.000000	90.597	33.0553
304.000000	90.652	33.0198
307.000000	90.692	32.9997
311.000000	90.749	32.9716
315.000000	90.802	32.9249
320.000000	90.860	32.8931
325.000000	90.932	32.8794
330.000000	91.000	32.7750
335.000000	91.057	32.6994
340.000000	91.119	32.5775
345.000000	91.179	32.5196
350.000000	91.231	32.4115
355.000000	91.291	32.3589
360.000000	91.346	32.2223
365.000000	91.402	32.1209
370.000000	91.454	32.0393
375.000000	91.507	31.9211
382.000000	91.579	31.7855
387.000000	91.632	31.6506
395.000000	91.703	31.4506
400.000000	91.752	31.3297
406.000000	91.801	31.2014
412.000000	91.847	31.0117
418.000000	91.900	30.8540
425.000000	91.962	30.6303
431.000000	91.996	30.5076
437.000000	92.044	30.3336
444.000000	92.094	30.1347
450.000000	92.132	29.9205
455.000000	92.163	29.7790
462.000000	92.203	29.5467
468.000000	92.236	29.3823
475.000000	92.274	29.1202
482.000000	92.303	28.9304
487.000000	92.328	28.8000
494.000000	92.355	28.5436
500.000000	92.374	28.3921
508.000000	92.403	28.1402
515.000000	92.423	27.9308
522.000000	92.441	27.7108
530.000000	92.457	27.4893
538.000000	92.471	27.2933
545.000000	92.486	27.0657
552.000000	92.486	26.8903
560.000000	92.491	26.6789
570.000000	92.489	26.4597
580.000000	92.484	26.2634
590.000000	92.469	26.1243
600.000000	92.454	25.9612
608.000000	92.437	25.9163
615.000000	92.418	25.8477
622.000000	92.400	25.8784
630.000000	92.379	25.8622
640.000000	92.355	25.9522
650.000000	92.328	26.0451
660.000000	92.301	26.1729
670.000000	92.274	26.3070
680.000000	92.242	26.4503
690.000000	92.216	26.6663
700.000000	92.183	26.9108
710.000000	92.159	27.1444
720.000000	92.128	27.4257
730.000000	92.098	27.7827
740.000000	92.072	28.1549
750.000000	92.045	28.5649
762.000000	92.018	29.1048
775.000000	91.993	29.7257
788.000000	91.973	30.4076
800.000000	91.961	31.0784
812.000000	91.945	31.7682
825.000000	91.933	32.4911
838.000000	91.936	33.2365
850.000000	91.939	33.9382
862.000000	91.953	34.6068
875.000000	91.963	35.3839
885.000000	91.978	35.9220
900.000000	92.006	36.7826
912.000000	92.028	37.4680
925.000000	92.057	38.2508
938.000000	92.094	38.9893
950.000000	92.133	39.6627
962.000000	92.169	40.3452
975.000000	92.221	41.0597
988.000000	92.280	41.7825
1000.000000	92.344	42.4598
1015.000000	92.425	43.1847
1030.000000	92.525	43.8813
1044.000000	92.619	44.5481
1060.000000	92.733	45.2459
1075.000000	92.833	45.8274
1090.000000	92.939	46.3973
1106.000000	93.055	46.9624
1120.000000	93.148	47.4113
1138.000000	93.279	47.9916
1150.000000	93.359	48.3177
1172.000000	93.515	48.9192
1180.000000	93.565	49.1116
1206.000000	93.735	49.7710
1220.000000	93.825	50.0889
1241.000000	93.967	50.5778
1250.000000	94.018	50.7893
1265.000000	94.087	51.0857
1280.000000	94.148	51.4592
1315.000000	94.299	52.2564
1320.000000	94.322	52.3651
1340.000000	94.398	52.8450
1360.000000	94.482	53.3198
1380.000000	94.564	53.8357
1400.000000	94.652	54.2770
1430.000000	94.790	55.0400
1450.000000	94.879	55.5337
1475.000000	94.996	56.1791
1500.000000	95.128	56.8328
1525.000000	95.258	57.4265
1550.000000	95.404	58.0296
1575.000000	95.546	58.6015
1600.000000	95.702	59.1384
1625.000000	95.901	59.6258
1650.000000	96.103	60.0744
1675.000000	96.311	60.4893
1700.000000	96.526	60.7767
1725.000000	96.747	61.0041
1750.000000	96.966	61.1800
1775.000000	97.187	61.2017
1800.000000	97.407	61.1635
1825.000000	97.621	61.0410
1850.000000	97.837	60.8265
1875.000000	98.046	60.4508
1900.000000	98.251	60.0319
1925.000000	98.444	59.4752
1950.000000	98.635	58.8432
1975.000000	98.814	58.0930
2000.000000	98.988	57.2102
2030.000000	99.166	56.1117
2060.000000	99.331	54.8353
2090.000000	99.484	53.4424
2120.000000	99.628	51.8754
2140.000000	99.715	50.7745
2180.000000	99.883	48.4399
2200.000000	99.957	47.1948
2240.000000	100.104	44.5446
2270.000000	100.201	42.4700
2300.000000	100.287	40.3513
2330.000000	100.351	38.2005
2360.000000	100.400	36.0231
2400.000000	100.436	33.1394
2430.000000	100.439	31.0236
2470.000000	100.411	28.3138
2500.000000	100.369	26.3870
2540.000000	100.291	23.9618
2580.000000	100.192	21.7799
2620.000000	100.074	19.7865
2650.000000	99.976	18.4475
2690.000000	99.836	16.9016
2720.000000	99.723	15.8915
2760.000000	99.579	14.7281
2800.000000	99.436	13.7268
2850.000000	99.259	12.7994
2900.000000	99.091	12.0572
2950.000000	98.936	11.5880
3000.000000	98.795	11.2829
3040.000000	98.709	11.1391
3070.000000	98.643	11.1034
3110.000000	98.562	11.1178
3150.000000	98.501	11.2434
3200.000000	98.435	11.3976
3250.000000	98.399	11.6659
3300.000000	98.390	11.9324
3350.000000	98.390	12.2254
3400.000000	98.419	12.5732
3450.000000	98.470	12.8852
3500.000000	98.547	13.1416
3550.000000	98.648	13.3512
3600.000000	98.765	13.4867
3650.000000	98.906	13.5475
3700.000000	99.068	13.4406
3750.000000	99.254	13.2410
3820.000000	99.538	12.6327
3870.000000	99.764	11.8791
3950.000000	100.150	10.1337
4000.000000	100.402	8.5640
4060.000000	100.692	6.1601
4120.000000	100.969	3.1090
4180.000000	101.217	-0.6600
4250.000000	101.433	-6.0242
4310.000000	101.534	-11.3945
4370.000000	101.534	-17.2364
4440.000000	101.397	-24.3301
4500.000000	101.143	-30.1924
4550.000000	100.845	-34.6421
4620.000000	100.302	-39.9929
4680.000000	99.743	-43.6093
4750.000000	99.018	-46.8332
4820.000000	98.249	-49.0485
4870.000000	97.685	-50.0715
4940.000000	96.907	-50.9095
5000.000000	96.241	-51.0695
5080.000000	95.380	-50.8122
5150.000000	94.655	-50.0564
5220.000000	93.976	-49.0294
5300.000000	93.242	-47.4916
5380.000000	92.535	-45.6245
5450.000000	91.951	-43.6600
5520.000000	91.398	-41.6737
5600.000000	90.801	-38.9815
5700.000000	90.129	-34.6934
5800.000000	89.870	-30.0601
5900.000000	89.476	-28.4815
6000.000000	88.934	-25.7982
6080.000000	88.552	-22.8720
6150.000000	88.265	-20.4133
6220.000000	87.997	-17.7473
6300.000000	87.727	-14.6568
6400.000000	87.504	-10.8818
6500.000000	87.347	-6.8712
6600.000000	87.235	-2.8505
6700.000000	87.169	1.1177
6800.000000	87.135	5.0635
6900.000000	87.161	9.1312
7000.000000	87.222	12.9937
7100.000000	87.337	16.9159
7200.000000	87.472	20.6962
7300.000000	87.698	24.4494
7400.000000	87.961	28.0599
7500.000000	88.249	31.5993
7620.000000	88.652	35.7095
7750.000000	89.210	39.7968
7880.000000	89.868	43.5600
8000.000000	90.560	46.4218
8120.000000	91.233	48.7325
8250.000000	92.044	50.5106
8380.000000	92.959	50.9024
8500.000000	93.855	49.8471
8620.000000	94.749	47.1000
8750.000000	95.563	41.7088
8850.000000	95.988	36.1158
9000.000000	96.169	26.5771
9120.000000	95.876	19.3417
9250.000000	95.246	13.3992
9380.000000	94.474	9.7580
9500.000000	93.743	8.3740
9620.000000	93.074	8.2710
9750.000000	92.490	9.3358
9880.000000	92.054	11.2968
10000.000000	91.783	13.7665
10150.000000	91.714	16.9484
10300.000000	91.898	20.4855
10440.000000	92.310	23.2919
10600.000000	93.103	25.4643
10750.000000	94.101	25.6409
10900.000000	95.275	22.9003
11060.000000	96.453	15.5414
11200.000000	97.151	5.4458
11380.000000	97.251	-10.6504
11500.000000	96.721	-21.1796
11720.000000	94.865	-35.3510
11800.000000	94.036	-38.4649
12060.000000	91.405	-42.5181
12200.000000	90.160	-42.1001
12410.000000	88.540	-39.7093
12500.000000	87.943	-38.0862
12650.000000	86.993	-35.2378
12800.000000	86.184	-31.6277
13150.000000	84.925	-22.7484
13200.000000	84.787	-21.4606
13400.000000	84.479	-16.9268
13600.000000	84.442	-13.0507
13800.000000	84.704	-10.6042
14000.000000	85.173	-10.7190
14300.000000	85.986	-19.2548
14500.000000	85.913	-31.9090
14750.000000	84.127	-48.5094
15000.000000	81.125	-57.0478
15250.000000	78.104	-57.6089
15500.000000	75.487	-54.3383
15750.000000	73.220	-48.4491
16000.000000	71.075	-40.5428
16250.000000	70.092	-31.2406
16500.000000	69.080	-22.4390
16750.000000	68.331	-14.2275
17000.000000	67.746	-4.1890
17250.000000	67.348	6.5956
17500.000000	66.807	17.6740
17750.000000	67.080	24.7553
18000.000000	67.271	33.8670
18250.000000	67.429	41.0744
18500.000000	68.232	51.2090
18750.000000	68.782	53.7747
19000.000000	69.322	54.3579
19250.000000	70.011	53.9962
19500.000000	69.685	47.7196
19750.000000	68.594	45.0295
