* Measurement data measured by REW V5.20.13
* Source: C:\Users\marcu\OneDrive\Desktop\Fix\ n.Silver f.Red Foam R.txt
* Format: Comma/Tab/Space delimited data
* Dated: Jul 26, 2023 6:09:33 PM
* REW Settings:
*  C-weighting compensation: Off
*  Target level: 75.0 dB
* Note: ; Measurement imported from C:\Users\marcu\OneDrive\Desktop\Fix\ n.Silver f.Red Foam R.txt Format: Comma/Tab/Space delimited data 54613 values loaded, 0 Hz to 20,000 Hz 
* Measurement:  n.Silver f.Red Foam R
* Smoothing: None
* Frequency Step: 1/48 octave
* Start Frequency: 1.000 Hz
*
* Freq(Hz)	SPL(dB)	Phase(degrees)
1.000000	58.057	-59.2566
1.015000	57.885	-60.1491
1.030000	57.707	-61.0421
1.044000	57.535	-61.8763
1.060000	57.331	-62.8304
1.075000	57.132	-63.7256
1.090000	56.926	-64.6217
1.106000	56.701	-65.6291
1.120000	56.520	-66.8258
1.138000	56.308	-68.8118
1.150000	56.178	-70.3743
1.172000	55.957	-73.6332
1.180000	55.880	-74.9184
1.206000	55.635	-79.3361
1.220000	55.502	-81.7972
1.241000	55.292	-85.4803
1.250000	55.197	-87.0248
1.265000	55.028	-89.5113
1.280000	54.844	-91.8427
1.315000	54.334	-96.3833
1.320000	54.250	-96.9006
1.340000	53.883	-98.5631
1.360000	53.457	-99.4815
1.380000	52.966	-99.5308
1.400000	52.400	-98.5861
1.430000	51.395	-95.0321
1.450000	50.608	-91.0559
1.475000	49.460	-83.9426
1.500000	47.970	-73.4553
1.525000	46.157	-59.8531
1.550000	44.089	-43.6898
1.575000	41.830	-25.5190
1.600000	39.448	-5.8946
1.625000	37.008	14.6298
1.650000	34.576	35.5005
1.675000	32.219	56.1638
1.700000	30.003	76.0661
1.725000	27.993	94.6535
1.750000	26.255	111.3724
1.775000	24.857	125.6691
1.800000	23.864	136.9899
1.825000	23.342	144.7811
1.850000	23.349	148.8039
1.875000	23.861	149.7337
1.900000	24.812	147.9709
1.925000	26.135	143.8925
1.950000	27.765	137.8760
1.975000	29.632	130.2985
2.000000	31.672	121.5374
2.030000	34.253	109.9926
2.060000	36.871	97.9385
2.090000	39.409	86.0268
2.120000	41.752	74.9094
2.140000	43.149	68.2609
2.180000	45.393	57.6650
2.200000	46.081	54.0946
2.240000	46.167	48.8271
2.270000	46.314	45.7909
2.300000	46.517	43.4128
2.330000	46.761	41.5802
2.360000	47.029	40.1801
2.400000	47.400	38.7910
2.430000	47.669	37.9611
2.470000	47.986	36.9225
2.500000	48.174	36.0482
2.540000	48.328	34.5407
2.580000	48.353	32.4646
2.620000	48.327	30.2351
2.650000	48.283	28.5538
2.690000	48.184	26.3174
2.720000	48.073	24.6560
2.760000	47.871	22.4795
2.800000	47.598	20.3674
2.850000	47.142	17.8511
2.900000	46.541	15.5121
2.950000	45.755	13.1751
3.000000	44.625	9.2722
3.040000	43.521	5.3802
3.070000	42.623	2.3813
3.110000	41.385	-1.2728
3.150000	40.164	-4.0178
3.200000	38.765	-5.3140
3.250000	37.633	-3.2130
3.300000	36.899	3.3929
3.350000	36.524	16.5772
3.400000	36.392	35.7148
3.450000	36.468	58.5024
3.500000	36.720	82.6369
3.550000	37.111	105.8153
3.600000	37.608	125.7344
3.650000	38.177	140.0912
3.700000	38.865	147.6517
3.750000	39.806	150.4284
3.820000	41.393	148.5634
3.870000	42.600	144.6636
3.950000	44.415	137.1157
4.000000	45.338	133.3485
4.060000	46.121	131.0568
4.120000	46.673	128.9938
4.180000	47.056	126.8288
4.250000	47.344	124.3137
4.310000	47.502	122.2867
4.370000	47.621	120.4889
4.440000	47.726	118.7035
4.500000	47.728	117.2428
4.550000	47.674	116.1267
4.620000	47.538	114.8290
4.680000	47.386	114.0653
4.750000	47.192	113.7139
4.820000	46.959	114.0048
4.870000	46.737	114.5425
4.940000	46.391	115.7150
5.000000	46.101	117.0746
5.080000	45.791	119.3372
5.150000	45.646	121.7271
5.220000	45.586	124.9196
5.300000	45.597	129.2483
5.380000	45.692	133.6767
5.450000	45.845	137.1201
5.520000	46.069	139.7646
5.600000	46.460	142.2092
5.700000	47.079	144.5927
5.800000	47.711	146.1859
5.900000	48.236	146.9068
6.000000	48.713	146.5571
6.080000	49.064	145.7343
6.150000	49.337	144.8155
6.220000	49.567	143.8733
6.300000	49.771	142.7089
6.400000	49.953	140.9223
6.500000	50.070	139.0216
6.600000	50.138	137.2791
6.700000	50.142	135.6571
6.800000	50.088	134.0947
6.900000	50.008	132.7167
7.000000	49.928	131.6395
7.100000	49.820	130.8510
7.200000	49.705	130.2784
7.300000	49.618	129.8544
7.400000	49.578	129.5965
7.500000	49.564	129.5695
7.620000	49.593	129.5699
7.750000	49.698	129.2945
7.880000	49.885	128.8642
8.000000	50.098	128.2285
8.120000	50.322	127.2131
8.250000	50.596	125.7059
8.380000	50.874	123.9243
8.500000	51.109	122.1067
8.620000	51.335	120.0561
8.750000	51.564	117.7676
8.850000	51.724	116.0644
9.000000	51.939	113.4884
9.120000	52.101	111.5270
9.250000	52.271	109.6015
9.380000	52.431	107.8323
9.500000	52.583	106.3478
9.620000	52.748	105.0284
9.750000	52.934	103.7730
9.880000	53.125	102.6275
10.000000	53.304	101.6540
10.150000	53.533	100.5577
10.300000	53.764	99.5033
10.440000	53.984	98.5544
10.600000	54.232	97.5135
10.750000	54.460	96.5636
10.900000	54.682	95.6498
11.060000	54.909	94.7415
11.200000	55.097	94.0012
11.380000	55.330	93.1241
11.500000	55.480	92.5943
11.720000	55.743	91.6956
11.800000	55.837	91.3826
12.060000	56.128	90.4107
12.200000	56.274	89.8780
12.410000	56.481	89.0733
12.500000	56.569	88.7251
12.650000	56.715	88.1347
12.800000	56.854	87.5562
13.150000	57.127	86.3025
13.200000	57.161	86.1407
13.400000	57.287	85.5442
13.600000	57.405	85.0088
13.800000	57.519	84.5373
14.000000	57.633	84.0667
14.300000	57.806	83.3238
14.500000	57.921	82.7456
14.750000	58.055	81.9239
15.000000	58.175	80.9958
15.250000	58.279	80.0071
15.500000	58.369	79.0037
15.750000	58.451	78.0094
16.000000	58.533	77.0450
16.250000	58.623	76.0965
16.500000	58.722	75.1558
16.750000	58.828	74.2078
17.000000	58.937	73.2529
17.250000	59.050	72.2965
17.500000	59.165	71.3478
17.750000	59.284	70.4162
18.000000	59.405	69.5032
18.250000	59.527	68.6094
18.500000	59.649	67.7356
18.750000	59.769	66.8889
19.000000	59.885	66.0764
19.250000	59.995	65.3138
19.500000	60.103	64.6056
19.750000	60.207	63.9539
20.000000	60.309	63.3498
20.299999	60.429	62.6684
20.600000	60.545	62.0188
20.900000	60.653	61.3917
21.200001	60.750	60.7909
21.400000	60.809	60.4097
21.799999	60.918	59.6884
22.000000	60.968	59.3399
22.400000	61.063	58.6375
22.700001	61.126	58.0870
23.000000	61.179	57.5170
23.299999	61.222	56.9526
23.600000	61.258	56.4177
24.000000	61.304	55.7678
24.299999	61.345	55.3069
24.700001	61.411	54.6652
25.000000	61.466	54.1224
25.400000	61.537	53.3080
25.799999	61.596	52.4565
26.200001	61.643	51.6728
26.500000	61.678	51.1729
26.900000	61.733	50.6234
27.200001	61.786	50.2637
27.600000	61.872	49.7914
28.000000	61.967	49.2775
28.500000	62.083	48.5753
29.000000	62.188	47.8601
29.500000	62.279	47.1587
30.000000	62.358	46.4542
30.400000	62.405	45.8933
30.700001	62.430	45.4964
31.100000	62.453	45.0379
31.500000	62.472	44.6738
32.000000	62.507	44.2952
32.500000	62.555	43.8768
33.000000	62.602	43.3490
33.500000	62.636	42.7720
34.000000	62.661	42.2458
34.500000	62.690	41.7850
35.000000	62.730	41.3287
35.500000	62.770	40.8393
36.000000	62.805	40.3545
36.500000	62.838	39.9260
37.000000	62.873	39.5543
37.500000	62.913	39.2023
38.200001	62.970	38.7116
38.700001	63.012	38.3661
39.500000	63.080	37.7352
40.000000	63.112	37.2509
40.599998	63.126	36.6775
41.200001	63.126	36.2769
41.799999	63.145	36.0133
42.500000	63.194	35.6052
43.099998	63.227	35.1120
43.700001	63.241	34.6725
44.400002	63.262	34.3135
45.000000	63.295	34.0084
45.500000	63.320	33.7156
46.200001	63.344	33.3431
46.799999	63.367	33.0904
47.500000	63.398	32.7799
48.200001	63.424	32.4486
48.700001	63.438	32.2401
49.400002	63.463	31.9667
50.000000	63.484	31.7055
50.799999	63.509	31.3573
51.500000	63.532	31.0673
52.200001	63.556	30.7293
53.000000	63.566	30.3636
53.799999	63.580	30.1358
54.500000	63.606	29.9213
55.200001	63.624	29.6537
56.000000	63.638	29.4239
57.000000	63.667	29.1308
58.000000	63.678	28.9064
59.000000	63.730	28.8001
60.000000	63.780	28.2800
60.799999	63.777	27.9287
61.500000	63.781	27.7760
62.200001	63.795	27.5803
63.000000	63.801	27.3298
64.000000	63.808	27.1260
65.000000	63.827	26.8970
66.000000	63.841	26.6690
67.000000	63.863	26.4706
68.000000	63.883	26.2309
69.000000	63.893	26.0269
70.000000	63.905	25.8780
71.000000	63.917	25.7432
72.000000	63.935	25.5925
73.000000	63.943	25.3657
74.000000	63.944	25.1926
75.000000	63.947	25.0076
76.199997	63.954	24.9063
77.500000	63.996	24.6147
78.800003	63.990	24.3352
80.000000	64.007	24.2678
81.199997	64.029	24.1777
82.500000	64.055	24.0306
83.800003	64.055	23.9481
85.000000	64.072	23.9652
86.199997	64.096	23.8412
87.500000	64.103	23.6724
88.500000	64.114	23.6019
90.000000	64.134	23.4037
91.199997	64.142	23.2949
92.500000	64.155	23.2109
93.800003	64.167	23.1569
95.000000	64.179	23.0859
96.199997	64.189	23.0163
97.500000	64.202	22.9287
98.800003	64.213	22.8540
100.000000	64.226	22.8058
101.500000	64.245	22.7497
103.000000	64.257	22.7046
104.400002	64.268	22.6841
106.000000	64.284	22.6381
107.500000	64.299	22.5543
109.000000	64.313	22.4809
110.599998	64.329	22.4245
112.000000	64.345	22.3736
113.800003	64.361	22.3446
115.000000	64.373	22.3220
117.199997	64.394	22.2868
118.000000	64.403	22.2747
120.599998	64.429	22.2362
122.000000	64.442	22.2217
124.099998	64.464	22.2270
125.000000	64.476	22.2126
126.500000	64.493	22.1948
128.000000	64.512	22.1898
131.500000	64.557	22.1534
132.000000	64.564	22.1517
134.000000	64.591	22.1627
136.000000	64.618	22.1790
138.000000	64.645	22.1935
140.000000	64.666	22.1931
143.000000	64.707	22.1996
145.000000	64.736	22.1831
147.500000	64.771	22.1952
150.000000	64.806	22.2205
152.500000	64.840	22.2333
155.000000	64.871	22.2536
157.500000	64.902	22.2841
160.000000	64.936	22.3049
162.500000	64.957	22.3292
165.000000	64.980	22.3811
167.500000	65.000	22.3957
170.000000	65.019	22.4129
172.500000	65.040	22.4365
175.000000	65.060	22.4798
177.500000	65.077	22.5140
180.000000	65.097	22.5120
182.500000	65.117	22.5203
185.000000	65.138	22.5492
187.500000	65.157	22.6034
190.000000	65.176	22.6302
192.500000	65.193	22.6507
195.000000	65.211	22.6743
197.500000	65.231	22.7043
200.000000	65.249	22.7365
203.000000	65.277	22.7578
206.000000	65.306	22.7768
209.000000	65.335	22.8086
212.000000	65.364	22.8402
214.000000	65.382	22.8465
218.000000	65.422	22.8696
220.000000	65.442	22.8882
224.000000	65.480	22.9243
227.000000	65.505	22.9390
230.000000	65.531	22.9590
233.000000	65.559	22.9871
236.000000	65.587	22.9951
240.000000	65.622	23.0133
243.000000	65.650	23.0382
247.000000	65.681	23.0484
250.000000	65.707	23.0505
254.000000	65.741	23.0739
258.000000	65.773	23.0914
262.000000	65.808	23.1051
265.000000	65.832	23.1232
269.000000	65.863	23.1312
272.000000	65.888	23.1286
276.000000	65.920	23.1534
280.000000	65.952	23.1614
285.000000	65.992	23.1592
290.000000	66.029	23.1765
295.000000	66.064	23.1907
300.000000	66.098	23.2006
304.000000	66.125	23.2095
307.000000	66.147	23.2185
311.000000	66.175	23.2169
315.000000	66.202	23.2212
320.000000	66.233	23.2214
325.000000	66.262	23.2158
330.000000	66.295	23.2193
335.000000	66.324	23.2271
340.000000	66.350	23.2397
345.000000	66.376	23.2394
350.000000	66.405	23.2335
355.000000	66.433	23.2297
360.000000	66.456	23.2234
365.000000	66.481	23.2217
370.000000	66.507	23.2198
375.000000	66.533	23.2168
382.000000	66.566	23.2029
387.000000	66.587	23.2047
395.000000	66.622	23.2195
400.000000	66.643	23.1984
406.000000	66.669	23.1850
412.000000	66.690	23.1871
418.000000	66.710	23.1933
425.000000	66.734	23.1822
431.000000	66.755	23.1832
437.000000	66.774	23.1890
444.000000	66.793	23.1757
450.000000	66.811	23.1619
455.000000	66.826	23.1686
462.000000	66.847	23.1702
468.000000	66.861	23.1722
475.000000	66.875	23.1576
482.000000	66.890	23.1533
487.000000	66.901	23.1517
494.000000	66.913	23.1548
500.000000	66.922	23.1640
508.000000	66.932	23.1703
515.000000	66.941	23.1826
522.000000	66.949	23.1998
530.000000	66.957	23.2419
538.000000	66.961	23.2760
545.000000	66.964	23.2932
552.000000	66.965	23.3318
560.000000	66.965	23.4049
570.000000	66.962	23.4933
580.000000	66.956	23.5876
590.000000	66.946	23.7128
600.000000	66.936	23.8825
608.000000	66.926	24.0390
615.000000	66.917	24.2045
622.000000	66.909	24.3726
630.000000	66.901	24.5711
640.000000	66.895	24.8577
650.000000	66.888	25.1699
660.000000	66.880	25.4541
670.000000	66.873	25.7519
680.000000	66.867	26.0612
690.000000	66.860	26.3931
700.000000	66.852	26.7240
710.000000	66.842	27.0792
720.000000	66.832	27.4682
730.000000	66.823	27.8786
740.000000	66.816	28.3224
750.000000	66.809	28.7825
762.000000	66.802	29.3662
775.000000	66.802	30.0187
788.000000	66.804	30.7196
800.000000	66.810	31.3894
812.000000	66.815	32.0735
825.000000	66.825	32.8030
838.000000	66.840	33.5326
850.000000	66.856	34.1948
862.000000	66.874	34.8621
875.000000	66.896	35.5998
885.000000	66.919	36.1547
900.000000	66.952	36.9807
912.000000	66.981	37.6627
925.000000	67.021	38.4187
938.000000	67.062	39.1748
950.000000	67.105	39.8606
962.000000	67.153	40.5352
975.000000	67.210	41.2596
988.000000	67.273	41.9608
1000.000000	67.336	42.5973
1015.000000	67.430	43.3579
1030.000000	67.532	44.0690
1044.000000	67.631	44.7076
1060.000000	67.749	45.3766
1075.000000	67.859	45.9807
1090.000000	67.969	46.5504
1106.000000	68.088	47.1235
1120.000000	68.194	47.5857
1138.000000	68.328	48.1054
1150.000000	68.414	48.4413
1172.000000	68.572	49.0592
1180.000000	68.627	49.2710
1206.000000	68.806	49.8940
1220.000000	68.902	50.2119
1241.000000	69.039	50.6925
1250.000000	69.092	50.8953
1265.000000	69.167	51.2323
1280.000000	69.235	51.5788
1315.000000	69.394	52.3509
1320.000000	69.417	52.4600
1340.000000	69.508	52.9076
1360.000000	69.597	53.3752
1380.000000	69.685	53.8660
1400.000000	69.777	54.3436
1430.000000	69.919	55.0444
1450.000000	70.016	55.5431
1475.000000	70.141	56.1760
1500.000000	70.272	56.7552
1525.000000	70.409	57.3620
1550.000000	70.554	57.9435
1575.000000	70.704	58.4779
1600.000000	70.872	58.9808
1625.000000	71.067	59.4538
1650.000000	71.274	59.8611
1675.000000	71.486	60.2132
1700.000000	71.703	60.4891
1725.000000	71.925	60.6804
1750.000000	72.147	60.7844
1775.000000	72.370	60.7994
1800.000000	72.588	60.7250
1825.000000	72.807	60.5516
1850.000000	73.025	60.2564
1875.000000	73.237	59.8477
1900.000000	73.442	59.3538
1925.000000	73.633	58.7647
1950.000000	73.818	58.0749
1975.000000	73.995	57.2563
2000.000000	74.164	56.3361
2030.000000	74.347	55.1097
2060.000000	74.512	53.7286
2090.000000	74.665	52.2201
2120.000000	74.804	50.5865
2140.000000	74.891	49.4262
2180.000000	75.057	46.9346
2200.000000	75.134	45.6145
2240.000000	75.272	42.8758
2270.000000	75.360	40.7437
2300.000000	75.435	38.5485
2330.000000	75.491	36.3326
2360.000000	75.527	34.1275
2400.000000	75.545	31.2317
2430.000000	75.535	29.1166
2470.000000	75.496	26.4259
2500.000000	75.446	24.5190
2540.000000	75.356	22.1627
2580.000000	75.245	20.0400
2620.000000	75.119	18.1416
2650.000000	75.017	16.8829
2690.000000	74.874	15.4079
2720.000000	74.767	14.4353
2760.000000	74.621	13.3241
2800.000000	74.472	12.4253
2850.000000	74.295	11.5638
2900.000000	74.137	10.8979
2950.000000	73.994	10.4655
3000.000000	73.861	10.2083
3040.000000	73.771	10.1183
3070.000000	73.712	10.0959
3110.000000	73.648	10.1202
3150.000000	73.598	10.2105
3200.000000	73.551	10.3794
3250.000000	73.522	10.6150
3300.000000	73.520	10.8655
3350.000000	73.543	11.1255
3400.000000	73.592	11.3681
3450.000000	73.663	11.5851
3500.000000	73.754	11.7633
3550.000000	73.870	11.8481
3600.000000	74.009	11.8391
3650.000000	74.168	11.7016
3700.000000	74.344	11.4196
3750.000000	74.538	10.9530
3820.000000	74.840	9.8960
3870.000000	75.070	8.8100
3950.000000	75.445	6.3795
4000.000000	75.676	4.3566
4060.000000	75.939	1.3244
4120.000000	76.168	-2.3906
4180.000000	76.344	-6.8075
4250.000000	76.459	-12.7778
4310.000000	76.457	-18.4226
4370.000000	76.346	-24.2841
4440.000000	76.068	-30.9608
4500.000000	75.701	-36.1721
4550.000000	75.312	-39.9638
4620.000000	74.664	-44.3322
4680.000000	74.041	-47.1974
4750.000000	73.270	-49.6235
4820.000000	72.480	-51.1594
4870.000000	71.916	-51.8014
4940.000000	71.141	-52.1717
5000.000000	70.495	-52.0616
5080.000000	69.655	-51.4092
5150.000000	68.955	-50.4649
5220.000000	68.285	-49.1864
5300.000000	67.563	-47.4516
5380.000000	66.890	-45.4238
5450.000000	66.331	-43.4607
5520.000000	65.792	-41.2695
5600.000000	65.209	-38.4152
5700.000000	64.600	-33.9821
5800.000000	64.331	-29.9076
5900.000000	63.964	-27.8568
6000.000000	63.447	-24.9326
6080.000000	63.083	-22.1384
6150.000000	62.805	-19.5690
6220.000000	62.558	-16.9334
6300.000000	62.314	-13.8720
6400.000000	62.089	-9.9191
6500.000000	61.941	-6.0060
6600.000000	61.842	-2.0479
6700.000000	61.788	1.9061
6800.000000	61.771	5.8735
6900.000000	61.790	9.8408
7000.000000	61.854	13.7807
7100.000000	61.977	17.7081
7200.000000	62.161	21.5305
7300.000000	62.380	25.2676
7400.000000	62.638	28.8572
7500.000000	62.942	32.3485
7620.000000	63.384	36.3290
7750.000000	63.944	40.3577
7880.000000	64.591	43.9876
8000.000000	65.253	46.8836
8120.000000	65.923	49.1974
8250.000000	66.725	50.8125
8380.000000	67.600	51.2755
8500.000000	68.450	50.3415
8620.000000	69.283	47.8140
8750.000000	70.060	43.1274
8850.000000	70.488	38.2481
9000.000000	70.730	29.8288
9120.000000	70.557	23.3171
9250.000000	70.079	17.6602
9380.000000	69.438	13.9430
9500.000000	68.813	12.1888
9620.000000	68.235	11.7635
9750.000000	67.708	12.4760
9880.000000	67.319	14.0509
10000.000000	67.113	16.0197
10150.000000	67.114	18.8029
10300.000000	67.385	21.5635
10440.000000	67.887	23.6239
10600.000000	68.748	24.6168
10750.000000	69.775	23.1766
10900.000000	70.846	18.3452
11060.000000	71.740	8.9426
11200.000000	72.071	-2.0392
11380.000000	71.715	-17.0938
11500.000000	71.014	-25.9535
11720.000000	69.077	-37.0767
11800.000000	68.276	-39.3585
12060.000000	65.780	-41.7113
12200.000000	64.608	-40.8263
12410.000000	63.104	-38.0252
12500.000000	62.533	-36.4454
12650.000000	61.669	-33.4384
12800.000000	60.929	-30.0900
13150.000000	59.749	-21.8135
13200.000000	59.642	-20.6645
13400.000000	59.372	-16.3964
13600.000000	59.357	-13.0665
13800.000000	59.601	-11.4980
14000.000000	60.040	-12.7882
14300.000000	60.527	-22.6676
14500.000000	60.103	-34.1032
14750.000000	58.278	-47.6706
15000.000000	55.535	-54.5570
15250.000000	52.690	-54.8648
15500.000000	50.147	-51.0534
15750.000000	47.946	-44.9555
16000.000000	46.090	-37.2131
16250.000000	44.790	-28.3466
16500.000000	43.846	-19.1064
16750.000000	43.134	-9.7526
17000.000000	42.643	-0.3120
17250.000000	42.334	9.0458
17500.000000	42.223	18.2050
17750.000000	42.274	27.0907
18000.000000	42.491	35.1324
18250.000000	42.841	42.3791
18500.000000	43.332	48.1235
18750.000000	43.870	51.7279
19000.000000	44.340	52.4010
19250.000000	44.446	50.1326
19500.000000	43.927	46.1868
19750.000000	42.756	43.0544
