* Measurement data measured by REW V5.20.13
* Source: C:\Users\marcu\OneDrive\Desktop\Fix\ n.Gold f.Red Foam R.txt
* Format: Comma/Tab/Space delimited data
* Dated: Jul 25, 2023 9:51:55 PM
* REW Settings:
*  C-weighting compensation: Off
*  Target level: 75.0 dB
* Note: ; Measurement imported from C:\Users\marcu\OneDrive\Desktop\Fix\ n.Gold f.Red Foam R.txt Format: Comma/Tab/Space delimited data 54613 values loaded, 0 Hz to 20,000 Hz 
* Measurement:  n.Gold f.Red Foam R
* Smoothing: None
* Frequency Step: 1/48 octave
* Start Frequency: 1.000 Hz
*
* Freq(Hz)	SPL(dB)	Phase(degrees)
1.000000	69.601	132.2003
1.015000	69.629	131.6551
1.030000	69.657	131.1158
1.044000	69.683	130.6178
1.060000	69.712	130.0550
1.075000	69.740	129.5336
1.090000	69.768	129.0181
1.106000	69.798	128.4750
1.120000	69.824	128.0058
1.138000	69.857	127.4108
1.150000	69.879	127.0192
1.172000	69.921	126.3117
1.180000	69.936	126.0576
1.206000	69.985	125.2439
1.220000	70.011	124.8132
1.241000	70.051	124.1765
1.250000	70.068	123.9070
1.265000	70.097	123.4625
1.280000	70.126	123.0234
1.315000	70.193	122.0199
1.320000	70.203	121.8789
1.340000	70.241	121.3205
1.360000	70.280	120.7712
1.380000	70.318	120.2306
1.400000	70.357	119.6985
1.430000	70.415	118.9158
1.450000	70.454	118.4040
1.475000	70.503	117.7756
1.500000	70.551	117.1634
1.525000	70.600	116.5677
1.550000	70.649	115.9878
1.575000	70.698	115.4230
1.600000	70.747	114.8724
1.625000	70.796	114.3355
1.650000	70.845	113.8114
1.675000	70.894	113.2995
1.700000	70.944	112.7989
1.725000	70.993	112.3091
1.750000	71.043	111.8292
1.775000	71.094	111.3586
1.800000	71.144	110.8964
1.825000	71.195	110.4421
1.850000	71.246	109.9969
1.875000	71.297	109.5651
1.900000	71.348	109.1463
1.925000	71.400	108.7396
1.950000	71.451	108.3442
1.975000	71.503	107.9593
2.000000	71.555	107.5841
2.030000	71.618	107.1457
2.060000	71.681	106.7187
2.090000	71.744	106.3019
2.120000	71.808	105.8939
2.140000	71.851	105.6261
2.180000	71.937	105.0988
2.200000	71.980	104.8385
2.240000	72.067	104.3327
2.270000	72.133	103.9680
2.300000	72.199	103.6145
2.330000	72.265	103.2712
2.360000	72.332	102.9370
2.400000	72.421	102.5035
2.430000	72.489	102.1862
2.470000	72.579	101.7711
2.500000	72.646	101.4646
2.540000	72.737	101.0599
2.580000	72.827	100.6587
2.620000	72.919	100.2683
2.650000	72.987	99.9830
2.690000	73.079	99.6113
2.720000	73.149	99.3384
2.760000	73.241	98.9808
2.800000	73.333	98.6292
2.850000	73.449	98.1955
2.900000	73.564	97.7657
2.950000	73.678	97.3374
3.000000	73.793	96.9163
3.040000	73.885	96.5849
3.070000	73.954	96.3392
3.110000	74.045	96.0148
3.150000	74.137	95.6936
3.200000	74.250	95.2955
3.250000	74.363	94.9000
3.300000	74.474	94.5060
3.350000	74.585	94.1146
3.400000	74.695	93.7268
3.450000	74.804	93.3425
3.500000	74.912	92.9613
3.550000	75.020	92.5829
3.600000	75.126	92.2071
3.650000	75.231	91.8334
3.700000	75.334	91.4619
3.750000	75.437	91.0930
3.820000	75.579	90.5809
3.870000	75.679	90.2181
3.950000	75.836	89.6429
4.000000	75.933	89.2866
4.060000	76.047	88.8623
4.120000	76.160	88.4415
4.180000	76.271	88.0243
4.250000	76.398	87.5421
4.310000	76.505	87.1326
4.370000	76.611	86.7267
4.440000	76.731	86.2575
4.500000	76.832	85.8590
4.550000	76.915	85.5296
4.620000	77.029	85.0727
4.680000	77.125	84.6851
4.750000	77.234	84.2375
4.820000	77.341	83.7949
4.870000	77.416	83.4816
4.940000	77.519	83.0472
5.000000	77.605	82.6791
5.080000	77.718	82.1949
5.150000	77.813	81.7777
5.220000	77.906	81.3658
5.300000	78.010	80.9019
5.380000	78.110	80.4459
5.450000	78.195	80.0540
5.520000	78.279	79.6692
5.600000	78.371	79.2373
5.700000	78.482	78.7094
5.800000	78.590	78.1956
5.900000	78.694	77.6964
6.000000	78.794	77.2122
6.080000	78.871	76.8350
6.150000	78.937	76.5120
6.220000	79.001	76.1953
6.300000	79.073	75.8416
6.400000	79.159	75.4122
6.500000	79.243	74.9947
6.600000	79.325	74.5871
6.700000	79.404	74.1904
6.800000	79.480	73.8045
6.900000	79.555	73.4268
7.000000	79.627	73.0552
7.100000	79.697	72.6916
7.200000	79.765	72.3348
7.300000	79.830	71.9830
7.400000	79.894	71.6352
7.500000	79.956	71.2925
7.620000	80.027	70.8870
7.750000	80.100	70.4529
7.880000	80.171	70.0250
8.000000	80.233	69.6350
8.120000	80.292	69.2493
8.250000	80.354	68.8367
8.380000	80.412	68.4288
8.500000	80.464	68.0560
8.620000	80.514	67.6874
8.750000	80.565	67.2912
8.850000	80.603	66.9881
9.000000	80.657	66.5372
9.120000	80.698	66.1780
9.250000	80.741	65.7894
9.380000	80.782	65.4019
9.500000	80.818	65.0441
9.620000	80.854	64.6854
9.750000	80.892	64.2964
9.880000	80.922	63.9062
10.000000	80.937	63.5448
10.150000	80.944	63.0915
10.300000	80.944	62.6367
10.440000	80.938	62.2106
10.600000	80.925	61.7224
10.750000	80.914	61.2635
10.900000	80.902	60.8037
11.060000	80.887	60.3124
11.200000	80.872	59.8820
11.380000	80.852	59.3281
11.500000	80.838	58.9585
11.720000	80.810	58.2805
11.800000	80.799	58.0339
12.060000	80.764	57.2324
12.200000	80.743	56.8011
12.410000	80.714	56.1545
12.500000	80.709	55.8778
12.650000	80.710	55.4168
12.800000	80.716	54.9564
13.150000	80.732	53.8851
13.200000	80.734	53.7324
13.400000	80.741	53.1227
13.600000	80.749	52.5151
13.800000	80.756	51.9097
14.000000	80.763	51.3072
14.300000	80.771	50.4098
14.500000	80.776	49.8170
14.750000	80.781	49.0831
15.000000	80.785	48.3576
15.250000	80.788	47.6415
15.500000	80.791	46.9344
15.750000	80.793	46.2363
16.000000	80.797	45.5468
16.250000	80.805	44.8653
16.500000	80.817	44.1915
16.750000	80.828	43.5248
17.000000	80.838	42.8647
17.250000	80.847	42.2110
17.500000	80.856	41.5630
17.750000	80.863	40.9203
18.000000	80.870	40.2823
18.250000	80.877	39.6486
18.500000	80.882	39.0183
18.750000	80.887	38.3911
19.000000	80.892	37.7666
19.250000	80.897	37.1447
19.500000	80.900	36.5260
19.750000	80.903	35.9107
20.000000	80.907	35.2999
20.299999	80.912	34.5739
20.600000	80.918	33.8560
20.900000	80.924	33.1464
21.200001	80.930	32.4440
21.400000	80.934	31.9789
21.799999	80.944	31.0552
22.000000	80.949	30.5965
22.400000	80.956	29.6872
22.700001	80.962	29.0145
23.000000	80.967	28.3525
23.299999	80.971	27.7019
23.600000	80.976	27.0617
24.000000	80.982	26.2206
24.299999	80.987	25.5951
24.700001	80.993	24.7651
25.000000	80.996	24.1461
25.400000	80.999	23.3295
25.799999	81.000	22.5284
26.200001	81.001	21.7443
26.500000	81.001	21.1646
26.900000	81.001	20.3969
27.200001	81.002	19.8214
27.600000	81.002	19.0535
28.000000	81.000	18.2890
28.500000	80.997	17.3484
29.000000	80.993	16.4291
29.500000	80.990	15.5250
30.000000	80.989	14.6260
30.400000	80.988	13.9086
30.700001	80.987	13.3730
31.100000	80.986	12.6650
31.500000	80.983	11.9653
32.000000	80.980	11.1014
32.500000	80.976	10.2484
33.000000	80.970	9.4090
33.500000	80.964	8.5859
34.000000	80.959	7.7759
34.500000	80.952	6.9703
35.000000	80.945	6.1660
35.500000	80.935	5.3703
36.000000	80.926	4.5918
36.500000	80.917	3.8260
37.000000	80.909	3.0568
37.500000	80.900	2.2757
38.200001	80.882	1.1888
38.700001	80.866	0.4443
39.500000	80.846	-0.7032
40.000000	80.836	-1.4262
40.599998	80.825	-2.3079
41.200001	80.810	-3.1794
41.799999	80.794	-4.0262
42.500000	80.776	-4.9973
43.099998	80.760	-5.8261
43.700001	80.744	-6.6459
44.400002	80.724	-7.5882
45.000000	80.706	-8.3886
45.500000	80.690	-9.0499
46.200001	80.667	-9.9603
46.799999	80.647	-10.7251
47.500000	80.622	-11.6040
48.200001	80.595	-12.4682
48.700001	80.576	-13.0751
49.400002	80.549	-13.9129
50.000000	80.524	-14.6235
50.799999	80.489	-15.5545
51.500000	80.457	-16.3446
52.200001	80.426	-17.1156
53.000000	80.389	-17.9805
53.799999	80.352	-18.8201
54.500000	80.318	-19.5356
55.200001	80.284	-20.2410
56.000000	80.244	-21.0207
57.000000	80.192	-21.9467
58.000000	80.142	-22.8577
59.000000	80.086	-23.7210
60.000000	80.033	-24.5264
60.799999	79.992	-25.1598
61.500000	79.953	-25.6954
62.200001	79.915	-26.2041
63.000000	79.872	-26.7636
64.000000	79.817	-27.4419
65.000000	79.760	-28.0914
66.000000	79.700	-28.7078
67.000000	79.641	-29.2907
68.000000	79.582	-29.8513
69.000000	79.522	-30.3909
70.000000	79.463	-30.9068
71.000000	79.404	-31.4047
72.000000	79.344	-31.8816
73.000000	79.284	-32.3346
74.000000	79.223	-32.7686
75.000000	79.163	-33.1936
76.199997	79.088	-33.6625
77.500000	79.013	-34.1536
78.800003	78.934	-34.6348
80.000000	78.861	-35.0545
81.199997	78.787	-35.4473
82.500000	78.711	-35.8556
83.800003	78.633	-36.2542
85.000000	78.563	-36.5968
86.199997	78.492	-36.9373
87.500000	78.414	-37.2814
88.500000	78.355	-37.5345
90.000000	78.267	-37.8942
91.199997	78.198	-38.1733
92.500000	78.124	-38.4703
93.800003	78.050	-38.7579
95.000000	77.981	-39.0178
96.199997	77.912	-39.2620
97.500000	77.839	-39.5148
98.800003	77.764	-39.7520
100.000000	77.699	-39.9572
101.500000	77.616	-40.2182
103.000000	77.533	-40.4664
104.400002	77.457	-40.6802
106.000000	77.371	-40.9165
107.500000	77.291	-41.1301
109.000000	77.210	-41.3265
110.599998	77.126	-41.5249
112.000000	77.053	-41.7033
113.800003	76.958	-41.9218
115.000000	76.896	-42.0569
117.199997	76.783	-42.2829
118.000000	76.744	-42.3579
120.599998	76.616	-42.6226
122.000000	76.546	-42.7455
124.099998	76.445	-42.9167
125.000000	76.402	-42.9881
126.500000	76.334	-43.0973
128.000000	76.268	-43.2004
131.500000	76.113	-43.4389
132.000000	76.091	-43.4695
134.000000	76.005	-43.5871
136.000000	75.923	-43.6940
138.000000	75.841	-43.7987
140.000000	75.757	-43.8841
143.000000	75.634	-43.9973
145.000000	75.555	-44.0639
147.500000	75.458	-44.1459
150.000000	75.362	-44.2054
152.500000	75.267	-44.2626
155.000000	75.173	-44.3128
157.500000	75.083	-44.3544
160.000000	74.990	-44.3804
162.500000	74.890	-44.4046
165.000000	74.787	-44.4239
167.500000	74.687	-44.4237
170.000000	74.592	-44.4077
172.500000	74.495	-44.3870
175.000000	74.398	-44.3692
177.500000	74.301	-44.3539
180.000000	74.209	-44.3283
182.500000	74.117	-44.3006
185.000000	74.026	-44.2676
187.500000	73.936	-44.2208
190.000000	73.849	-44.1611
192.500000	73.763	-44.0936
195.000000	73.675	-44.0225
197.500000	73.590	-43.9602
200.000000	73.508	-43.8881
203.000000	73.413	-43.7836
206.000000	73.321	-43.6917
209.000000	73.234	-43.6137
212.000000	73.148	-43.5164
214.000000	73.092	-43.4314
218.000000	72.979	-43.2557
220.000000	72.924	-43.1769
224.000000	72.814	-43.0258
227.000000	72.733	-42.9067
230.000000	72.653	-42.7702
233.000000	72.575	-42.6061
236.000000	72.498	-42.4540
240.000000	72.399	-42.2623
243.000000	72.325	-42.1191
247.000000	72.225	-41.9229
250.000000	72.154	-41.7613
254.000000	72.063	-41.5431
258.000000	71.973	-41.3231
262.000000	71.888	-41.1037
265.000000	71.823	-40.9460
269.000000	71.736	-40.7171
272.000000	71.671	-40.5195
276.000000	71.589	-40.2633
280.000000	71.511	-40.0278
285.000000	71.414	-39.7346
290.000000	71.317	-39.4171
295.000000	71.221	-39.0798
300.000000	71.129	-38.7710
304.000000	71.059	-38.5182
307.000000	71.008	-38.3184
311.000000	70.939	-38.0454
315.000000	70.868	-37.7686
320.000000	70.781	-37.4424
325.000000	70.696	-37.1057
330.000000	70.617	-36.7743
335.000000	70.540	-36.4113
340.000000	70.463	-36.0381
345.000000	70.388	-35.7071
350.000000	70.313	-35.3737
355.000000	70.242	-35.0233
360.000000	70.173	-34.6705
365.000000	70.107	-34.3127
370.000000	70.041	-33.9575
375.000000	69.975	-33.6011
382.000000	69.884	-33.0877
387.000000	69.822	-32.7420
395.000000	69.724	-32.1583
400.000000	69.664	-31.7858
406.000000	69.594	-31.3461
412.000000	69.526	-30.9168
418.000000	69.458	-30.4902
425.000000	69.385	-29.9858
431.000000	69.322	-29.5415
437.000000	69.262	-29.0994
444.000000	69.191	-28.5976
450.000000	69.135	-28.1524
455.000000	69.091	-27.7850
462.000000	69.026	-27.2878
468.000000	68.971	-26.8572
475.000000	68.909	-26.3575
482.000000	68.847	-25.8321
487.000000	68.804	-25.4566
494.000000	68.747	-24.9263
500.000000	68.700	-24.4671
508.000000	68.634	-23.8763
515.000000	68.582	-23.3731
522.000000	68.532	-22.8705
530.000000	68.476	-22.2754
538.000000	68.421	-21.6537
545.000000	68.375	-21.1244
552.000000	68.329	-20.6057
560.000000	68.277	-20.0160
570.000000	68.213	-19.2514
580.000000	68.150	-18.4957
590.000000	68.088	-17.7013
600.000000	68.025	-16.8867
608.000000	67.979	-16.2117
615.000000	67.942	-15.6103
622.000000	67.910	-15.0171
630.000000	67.875	-14.3328
640.000000	67.838	-13.4443
650.000000	67.810	-12.5834
660.000000	67.785	-11.7343
670.000000	67.764	-10.8941
680.000000	67.746	-10.0872
690.000000	67.729	-9.2709
700.000000	67.711	-8.4703
710.000000	67.693	-7.6433
720.000000	67.680	-6.8136
730.000000	67.670	-6.0016
740.000000	67.661	-5.1885
750.000000	67.655	-4.3685
762.000000	67.659	-3.3728
775.000000	67.667	-2.2858
788.000000	67.680	-1.2182
800.000000	67.697	-0.2451
812.000000	67.716	0.7034
825.000000	67.738	1.6988
838.000000	67.764	2.6715
850.000000	67.791	3.5357
862.000000	67.819	4.3657
875.000000	67.851	5.2450
885.000000	67.877	5.9132
900.000000	67.918	6.8999
912.000000	67.953	7.6871
925.000000	67.992	8.5415
938.000000	68.036	9.3870
950.000000	68.080	10.1487
962.000000	68.129	10.8826
975.000000	68.185	11.6519
988.000000	68.246	12.4087
1000.000000	68.303	13.0939
1015.000000	68.385	13.9024
1030.000000	68.475	14.6727
1044.000000	68.562	15.3408
1060.000000	68.664	16.0731
1075.000000	68.759	16.7368
1090.000000	68.852	17.3342
1106.000000	68.951	17.9332
1120.000000	69.038	18.4377
1138.000000	69.149	19.0526
1150.000000	69.221	19.4289
1172.000000	69.351	20.0821
1180.000000	69.397	20.3122
1206.000000	69.541	21.0124
1220.000000	69.615	21.3822
1241.000000	69.723	21.9167
1250.000000	69.764	22.1346
1265.000000	69.818	22.4805
1280.000000	69.865	22.8234
1315.000000	69.971	23.6626
1320.000000	69.985	23.7742
1340.000000	70.040	24.2173
1360.000000	70.095	24.6755
1380.000000	70.145	25.1549
1400.000000	70.196	25.6197
1430.000000	70.275	26.3113
1450.000000	70.331	26.7774
1475.000000	70.403	27.3354
1500.000000	70.476	27.9098
1525.000000	70.551	28.4881
1550.000000	70.631	29.0291
1575.000000	70.712	29.5504
1600.000000	70.800	30.0730
1625.000000	70.916	30.5603
1650.000000	71.041	31.0210
1675.000000	71.171	31.4526
1700.000000	71.299	31.8494
1725.000000	71.427	32.2119
1750.000000	71.559	32.5517
1775.000000	71.693	32.8325
1800.000000	71.824	33.0735
1825.000000	71.953	33.2938
1850.000000	72.076	33.5033
1875.000000	72.199	33.6792
1900.000000	72.321	33.8175
1925.000000	72.441	33.9413
1950.000000	72.558	34.0604
1975.000000	72.669	34.1594
2000.000000	72.776	34.2546
2030.000000	72.894	34.3785
2060.000000	73.014	34.4640
2090.000000	73.134	34.5423
2120.000000	73.249	34.6228
2140.000000	73.324	34.6879
2180.000000	73.473	34.7786
2200.000000	73.547	34.8158
2240.000000	73.696	34.8921
2270.000000	73.806	34.9368
2300.000000	73.918	34.9710
2330.000000	74.028	34.9953
2360.000000	74.139	35.0113
2400.000000	74.290	35.0150
2430.000000	74.402	34.9947
2470.000000	74.553	34.9540
2500.000000	74.665	34.9161
2540.000000	74.815	34.8196
2580.000000	74.963	34.7011
2620.000000	75.109	34.5639
2650.000000	75.219	34.4401
2690.000000	75.367	34.2462
2720.000000	75.479	34.0749
2760.000000	75.629	33.8186
2800.000000	75.776	33.5287
2850.000000	75.958	33.1304
2900.000000	76.141	32.6749
2950.000000	76.325	32.1642
3000.000000	76.509	31.5943
3040.000000	76.654	31.1028
3070.000000	76.763	30.7031
3110.000000	76.907	30.1361
3150.000000	77.050	29.5355
3200.000000	77.224	28.7297
3250.000000	77.401	27.8480
3300.000000	77.576	26.8890
3350.000000	77.750	25.8577
3400.000000	77.919	24.7420
3450.000000	78.087	23.5369
3500.000000	78.252	22.2300
3550.000000	78.418	20.8190
3600.000000	78.581	19.2806
3650.000000	78.740	17.6089
3700.000000	78.891	15.8032
3750.000000	79.038	13.8223
3820.000000	79.231	10.7526
3870.000000	79.355	8.3199
3950.000000	79.516	3.9984
4000.000000	79.591	1.0063
4060.000000	79.640	-2.8557
4120.000000	79.640	-6.9767
4180.000000	79.579	-11.2909
4250.000000	79.420	-16.4338
4310.000000	79.203	-20.7795
4370.000000	78.912	-24.9315
4440.000000	78.486	-29.3891
4500.000000	78.051	-32.7418
4550.000000	77.649	-35.1707
4620.000000	77.045	-38.0015
4680.000000	76.506	-39.8993
4750.000000	75.863	-41.5281
4820.000000	75.218	-42.5798
4870.000000	74.766	-43.0306
4940.000000	74.151	-43.2789
5000.000000	73.637	-43.1736
5080.000000	72.978	-42.7010
5150.000000	72.434	-42.0086
5220.000000	71.917	-41.1027
5300.000000	71.352	-39.8392
5380.000000	70.823	-38.4014
5450.000000	70.392	-37.0089
5520.000000	69.976	-35.4442
5600.000000	69.523	-33.3532
5700.000000	69.064	-29.9329
5800.000000	68.939	-27.2362
5900.000000	68.662	-26.5497
6000.000000	68.246	-25.0296
6080.000000	67.937	-23.3944
6150.000000	67.690	-21.8711
6220.000000	67.470	-20.3065
6300.000000	67.253	-18.4838
6400.000000	67.054	-16.1980
6500.000000	66.894	-13.9160
6600.000000	66.759	-11.6584
6700.000000	66.647	-9.3984
6800.000000	66.551	-7.1454
6900.000000	66.477	-4.9282
7000.000000	66.422	-2.7043
7100.000000	66.393	-0.5024
7200.000000	66.398	1.6365
7300.000000	66.415	3.6547
7400.000000	66.441	5.5773
7500.000000	66.481	7.4504
7620.000000	66.558	9.5953
7750.000000	66.665	11.8136
7880.000000	66.791	13.8623
8000.000000	66.902	15.6252
8120.000000	66.955	17.2113
8250.000000	67.008	18.7472
8380.000000	67.075	20.0718
8500.000000	67.150	21.1190
8620.000000	67.235	21.9397
8750.000000	67.333	22.6058
8850.000000	67.412	22.9601
9000.000000	67.537	23.2290
9120.000000	67.631	23.2088
9250.000000	67.720	22.9897
9380.000000	67.804	22.5948
9500.000000	67.872	22.0662
9620.000000	67.927	21.4126
9750.000000	67.968	20.5862
9880.000000	67.994	19.6556
10000.000000	68.023	18.7065
10150.000000	68.090	17.4350
10300.000000	68.155	16.0926
10440.000000	68.202	14.7782
10600.000000	68.245	13.2236
10750.000000	68.280	11.6884
10900.000000	68.324	10.0250
11060.000000	68.382	7.9966
11200.000000	68.433	5.8464
11380.000000	68.465	2.3373
11500.000000	68.427	-0.4665
11720.000000	68.152	-6.1545
11800.000000	67.983	-8.2383
12060.000000	67.212	-14.4974
12200.000000	66.691	-17.3926
12410.000000	65.809	-21.0968
12500.000000	65.392	-22.4428
12650.000000	64.638	-24.3590
12800.000000	63.832	-25.8139
13150.000000	61.894	-27.4736
13200.000000	61.617	-27.5380
13400.000000	60.526	-27.4816
13600.000000	59.447	-26.9588
13800.000000	58.389	-26.1175
14000.000000	57.353	-25.0004
14300.000000	55.834	-22.9616
14500.000000	54.850	-21.3030
14750.000000	53.646	-19.0515
15000.000000	52.465	-16.6328
15250.000000	51.301	-13.9296
15500.000000	50.162	-10.8918
15750.000000	49.059	-7.4143
16000.000000	48.005	-3.3300
16250.000000	47.304	1.4023
16500.000000	46.776	6.2388
16750.000000	46.275	11.1739
17000.000000	45.880	16.1549
17250.000000	45.596	21.3666
17500.000000	45.333	26.2788
17750.000000	45.095	31.0358
18000.000000	44.902	35.0541
18250.000000	44.709	38.8980
18500.000000	44.547	41.9078
18750.000000	44.262	43.9756
19000.000000	43.856	45.1398
19250.000000	43.228	45.3102
19500.000000	42.238	44.7668
19750.000000	40.985	44.6772
