* Measurement data measured by REW V5.20.13
* Source: EXCL: Microphone (USB Sound Device        ), MICROPHONE (Master Volume), L, volume: 0.250
* Format: 256k Log Swept Sine, 1 sweep at -6.0 dBFS with no timing reference
* Dated: Sep 14, 2023 5:58:37 PM
* REW Settings:
*  C-weighting compensation: Off
*  Target level: 75.0 dB
* Note: ; 
* Measurement: n.Gray f.Red Foam L
* Smoothing: None
* Frequency Step: 1/48 octave
* Start Frequency: 1.000 Hz
*
* Freq(Hz)	SPL(dB)	Phase(degrees)
1.000000	53.919	142.8845
1.015000	53.828	142.4365
1.030000	53.736	141.9995
1.044000	53.648	141.6022
1.060000	53.545	141.1612
1.075000	53.446	140.7614
1.090000	53.346	140.3753
1.106000	53.236	139.9767
1.120000	53.137	139.6243
1.138000	53.008	139.1642
1.150000	52.921	138.8549
1.172000	52.756	138.2866
1.180000	52.695	138.0807
1.206000	52.493	137.4193
1.220000	52.382	137.0712
1.241000	52.213	136.5642
1.250000	52.139	136.3538
1.265000	52.015	136.0141
1.280000	51.889	135.6899
1.315000	51.588	135.0064
1.320000	51.545	134.9183
1.340000	51.369	134.5928
1.360000	51.190	134.3144
1.380000	51.009	134.0883
1.400000	50.826	133.9197
1.430000	50.547	133.7860
1.450000	50.358	133.7838
1.475000	50.118	133.8818
1.500000	49.860	134.0434
1.525000	49.585	134.2608
1.550000	49.295	134.5396
1.575000	48.996	134.8850
1.600000	48.690	135.3026
1.625000	48.383	135.7978
1.650000	48.078	136.3761
1.675000	47.779	137.0428
1.700000	47.490	137.8034
1.725000	47.215	138.6634
1.750000	46.958	139.6281
1.775000	46.723	140.7031
1.800000	46.514	141.8937
1.825000	46.335	143.2054
1.850000	46.184	144.6873
1.875000	46.046	146.4261
1.900000	45.922	148.3877
1.925000	45.813	150.5332
1.950000	45.719	152.8238
1.975000	45.639	155.2206
2.000000	45.576	157.6846
2.030000	45.522	160.6754
2.060000	45.493	163.6399
2.090000	45.489	166.5108
2.120000	45.511	169.2209
2.140000	45.541	170.9052
2.180000	45.639	173.8900
2.200000	45.707	175.1519
2.240000	45.906	177.4071
2.270000	46.109	178.9388
2.300000	46.351	-179.6627
2.330000	46.623	-178.3939
2.360000	46.918	-177.2515
2.400000	47.336	-175.9192
2.430000	47.657	-175.0587
2.470000	48.081	-174.0901
2.500000	48.388	-173.4932
2.540000	48.766	-172.8638
2.580000	49.098	-172.4314
2.620000	49.417	-172.2975
2.650000	49.653	-172.3843
2.690000	49.962	-172.7111
2.720000	50.189	-173.0882
2.760000	50.484	-173.7286
2.800000	50.769	-174.4821
2.850000	51.108	-175.5099
2.900000	51.427	-176.5457
2.950000	51.722	-177.5225
3.000000	51.993	-178.6070
3.040000	52.195	-179.5666
3.070000	52.338	179.6724
3.110000	52.519	178.6175
3.150000	52.690	177.5339
3.200000	52.892	176.1676
3.250000	53.084	174.8222
3.300000	53.267	173.5338
3.350000	53.438	172.2605
3.400000	53.593	170.9670
3.450000	53.735	169.6694
3.500000	53.866	168.3840
3.550000	53.990	167.1271
3.600000	54.109	165.9150
3.650000	54.225	164.7638
3.700000	54.339	163.6752
3.750000	54.443	162.6237
3.820000	54.576	161.2182
3.870000	54.667	160.2664
3.950000	54.811	158.8434
4.000000	54.905	158.0217
4.060000	55.024	157.1125
4.120000	55.141	156.2964
4.180000	55.258	155.5601
4.250000	55.399	154.7805
4.310000	55.526	154.1622
4.370000	55.662	153.5729
4.440000	55.835	152.9228
4.500000	55.993	152.4352
4.550000	56.130	152.0644
4.620000	56.331	151.5731
4.680000	56.509	151.1533
4.750000	56.726	150.6330
4.820000	56.952	150.0791
4.870000	57.121	149.6856
4.940000	57.366	149.1273
5.000000	57.581	148.6321
5.080000	57.867	147.9312
5.150000	58.115	147.2651
5.220000	58.366	146.5502
5.300000	58.656	145.6861
5.380000	58.943	144.7847
5.450000	59.189	143.9759
5.520000	59.427	143.1546
5.600000	59.692	142.1763
5.700000	60.015	140.9141
5.800000	60.325	139.6515
5.900000	60.621	138.4270
6.000000	60.900	137.2104
6.080000	61.115	136.2520
6.150000	61.297	135.4375
6.220000	61.475	134.6566
6.300000	61.672	133.8060
6.400000	61.907	132.7911
6.500000	62.135	131.8311
6.600000	62.361	130.9277
6.700000	62.583	130.0912
6.800000	62.800	129.3137
6.900000	63.015	128.5737
7.000000	63.232	127.8547
7.100000	63.448	127.1752
7.200000	63.664	126.5208
7.300000	63.879	125.8679
7.400000	64.092	125.2053
7.500000	64.306	124.5468
7.620000	64.559	123.7504
7.750000	64.825	122.8637
7.880000	65.085	121.9533
8.000000	65.318	121.1027
8.120000	65.541	120.2486
8.250000	65.773	119.3119
8.380000	65.994	118.3810
8.500000	66.190	117.5401
8.620000	66.377	116.7100
8.750000	66.572	115.8301
8.850000	66.718	115.1723
9.000000	66.929	114.2144
9.120000	67.092	113.4660
9.250000	67.266	112.6707
9.380000	67.435	111.8939
9.500000	67.589	111.1813
9.620000	67.742	110.4677
9.750000	67.906	109.6980
9.880000	68.058	108.9245
10.000000	68.181	108.2031
10.150000	68.319	107.2957
10.300000	68.447	106.3862
10.440000	68.554	105.5331
10.600000	68.669	104.5622
10.750000	68.772	103.6624
10.900000	68.871	102.7711
11.060000	68.972	101.8363
11.200000	69.057	101.0322
11.380000	69.164	100.0110
11.500000	69.233	99.3387
11.720000	69.358	98.1154
11.800000	69.402	97.6706
12.060000	69.544	96.2267
12.200000	69.616	95.4453
12.410000	69.721	94.2707
12.500000	69.771	93.7685
12.650000	69.861	92.9309
12.800000	69.952	92.0994
13.150000	70.151	90.1969
13.200000	70.178	89.9307
13.400000	70.284	88.8812
13.600000	70.386	87.8546
13.800000	70.484	86.8518
14.000000	70.580	85.8668
14.300000	70.718	84.4201
14.500000	70.806	83.4725
14.750000	70.910	82.3090
15.000000	71.008	81.1703
15.250000	71.099	80.0617
15.500000	71.185	78.9836
15.750000	71.266	77.9354
16.000000	71.345	76.9136
16.250000	71.424	75.9129
16.500000	71.503	74.9311
16.750000	71.575	73.9660
17.000000	71.642	73.0184
17.250000	71.704	72.0888
17.500000	71.762	71.1777
17.750000	71.816	70.2828
18.000000	71.866	69.4015
18.250000	71.913	68.5309
18.500000	71.956	67.6681
18.750000	71.996	66.8132
19.000000	72.033	65.9666
19.250000	72.067	65.1300
19.500000	72.098	64.3036
19.750000	72.127	63.4873
20.000000	72.155	62.6791
20.299999	72.187	61.7181
20.600000	72.218	60.7668
20.900000	72.246	59.8279
21.200001	72.271	58.9067
21.400000	72.287	58.3048
21.799999	72.318	57.1288
22.000000	72.334	56.5520
22.400000	72.365	55.4111
22.700001	72.388	54.5604
23.000000	72.408	53.7144
23.299999	72.425	52.8813
23.600000	72.439	52.0704
24.000000	72.454	51.0343
24.299999	72.464	50.2901
24.700001	72.479	49.3275
25.000000	72.491	48.6143
25.400000	72.506	47.6637
25.799999	72.516	46.7166
26.200001	72.521	45.7894
26.500000	72.522	45.1167
26.900000	72.522	44.2523
27.200001	72.523	43.6223
27.600000	72.525	42.7929
28.000000	72.528	41.9628
28.500000	72.530	40.9248
29.000000	72.529	39.9080
29.500000	72.529	38.9270
30.000000	72.531	37.9685
30.400000	72.535	37.2013
30.700001	72.538	36.6232
31.100000	72.539	35.8578
31.500000	72.538	35.1128
32.000000	72.536	34.2226
32.500000	72.535	33.3681
33.000000	72.535	32.5266
33.500000	72.534	31.6931
34.000000	72.529	30.8819
34.500000	72.523	30.1043
35.000000	72.518	29.3530
35.500000	72.514	28.6082
36.000000	72.510	27.8578
36.500000	72.503	27.1077
37.000000	72.492	26.3766
37.500000	72.481	25.6756
38.200001	72.471	24.7212
38.700001	72.465	24.0315
39.500000	72.449	22.9322
40.000000	72.436	22.2844
40.599998	72.426	21.5446
41.200001	72.419	20.8076
41.799999	72.410	20.0729
42.500000	72.396	19.2577
43.099998	72.387	18.5888
43.700001	72.379	17.9165
44.400002	72.366	17.1357
45.000000	72.352	16.4951
45.500000	72.342	15.9805
46.200001	72.329	15.2728
46.799999	72.318	14.6696
47.500000	72.304	13.9640
48.200001	72.287	13.2667
48.700001	72.272	12.7882
49.400002	72.253	12.1467
50.000000	72.238	11.6043
50.799999	72.219	10.8804
51.500000	72.200	10.2553
52.200001	72.180	9.6440
53.000000	72.157	8.9758
53.799999	72.137	8.3210
54.500000	72.117	7.7460
55.200001	72.095	7.2117
56.000000	72.076	6.6344
57.000000	72.048	5.8715
58.000000	72.014	5.2073
59.000000	71.993	4.4965
60.000000	71.944	3.7473
60.799999	71.906	3.3075
61.500000	71.888	2.9117
62.200001	71.868	2.4505
63.000000	71.840	1.9331
64.000000	71.802	1.3142
65.000000	71.763	0.7125
66.000000	71.725	0.1534
67.000000	71.688	-0.3930
68.000000	71.651	-0.9188
69.000000	71.615	-1.4305
70.000000	71.577	-1.9339
71.000000	71.539	-2.4276
72.000000	71.499	-2.9127
73.000000	71.457	-3.3747
74.000000	71.420	-3.8024
75.000000	71.388	-4.2759
76.199997	71.333	-4.8415
77.500000	71.282	-5.3189
78.800003	71.234	-5.8599
80.000000	71.186	-6.3135
81.199997	71.136	-6.7636
82.500000	71.086	-7.1785
83.800003	71.039	-7.6613
85.000000	70.991	-8.0690
86.199997	70.946	-8.4863
87.500000	70.893	-8.8974
88.500000	70.856	-9.1890
90.000000	70.801	-9.6170
91.199997	70.756	-9.9793
92.500000	70.699	-10.3303
93.800003	70.651	-10.6523
95.000000	70.604	-10.9880
96.199997	70.557	-11.2828
97.500000	70.508	-11.6147
98.800003	70.458	-11.9157
100.000000	70.412	-12.1864
101.500000	70.354	-12.4834
103.000000	70.304	-12.8023
104.400002	70.246	-13.1054
106.000000	70.188	-13.3734
107.500000	70.132	-13.6599
109.000000	70.080	-13.9083
110.599998	70.020	-14.2144
112.000000	69.969	-14.4511
113.800003	69.903	-14.7146
115.000000	69.862	-14.8934
117.199997	69.785	-15.2000
118.000000	69.756	-15.3136
120.599998	69.664	-15.6476
122.000000	69.615	-15.8394
124.099998	69.543	-16.0900
125.000000	69.513	-16.1672
126.500000	69.468	-16.2975
128.000000	69.427	-16.4229
131.500000	69.321	-16.7943
132.000000	69.305	-16.8421
134.000000	69.247	-16.9897
136.000000	69.193	-17.1376
138.000000	69.140	-17.2691
140.000000	69.085	-17.4148
143.000000	69.002	-17.6583
145.000000	68.945	-17.7570
147.500000	68.877	-17.8538
150.000000	68.807	-17.9582
152.500000	68.747	-18.0653
155.000000	68.686	-18.1678
157.500000	68.618	-18.2600
160.000000	68.556	-18.3029
162.500000	68.482	-18.3591
165.000000	68.411	-18.4413
167.500000	68.340	-18.4919
170.000000	68.261	-18.5229
172.500000	68.196	-18.5189
175.000000	68.127	-18.5361
177.500000	68.055	-18.5356
180.000000	67.988	-18.4918
182.500000	67.916	-18.4639
185.000000	67.849	-18.4487
187.500000	67.782	-18.4556
190.000000	67.719	-18.4095
192.500000	67.659	-18.3338
195.000000	67.593	-18.2553
197.500000	67.532	-18.2251
200.000000	67.467	-18.2055
203.000000	67.411	-18.1127
206.000000	67.351	-18.0115
209.000000	67.286	-17.9263
212.000000	67.219	-17.8111
214.000000	67.181	-17.7275
218.000000	67.110	-17.5854
220.000000	67.070	-17.5100
224.000000	66.990	-17.3321
227.000000	66.930	-17.1824
230.000000	66.876	-17.0240
233.000000	66.831	-16.9053
236.000000	66.777	-16.7359
240.000000	66.704	-16.5397
243.000000	66.655	-16.4000
247.000000	66.589	-16.1495
250.000000	66.540	-15.9464
254.000000	66.478	-15.7598
258.000000	66.428	-15.5015
262.000000	66.367	-15.2612
265.000000	66.324	-15.0891
269.000000	66.268	-14.8304
272.000000	66.227	-14.6205
276.000000	66.175	-14.4006
280.000000	66.124	-14.1404
285.000000	66.062	-13.7755
290.000000	65.994	-13.4050
295.000000	65.934	-13.0673
300.000000	65.881	-12.7275
304.000000	65.834	-12.4257
307.000000	65.807	-12.1724
311.000000	65.766	-11.9529
315.000000	65.726	-11.6192
320.000000	65.676	-11.3043
325.000000	65.626	-10.8869
330.000000	65.582	-10.5044
335.000000	65.537	-10.0944
340.000000	65.487	-9.7382
345.000000	65.442	-9.3507
350.000000	65.395	-8.9120
355.000000	65.358	-8.5165
360.000000	65.322	-8.1259
365.000000	65.285	-7.7382
370.000000	65.248	-7.3476
375.000000	65.212	-6.9314
382.000000	65.171	-6.4101
387.000000	65.150	-5.9973
395.000000	65.104	-5.3226
400.000000	65.068	-4.9236
406.000000	65.034	-4.4279
412.000000	65.007	-3.9916
418.000000	64.983	-3.4706
425.000000	64.938	-2.9104
431.000000	64.911	-2.3929
437.000000	64.889	-1.8971
444.000000	64.861	-1.3478
450.000000	64.845	-0.8694
455.000000	64.826	-0.5039
462.000000	64.798	0.0994
468.000000	64.783	0.5620
475.000000	64.765	1.1400
482.000000	64.740	1.6971
487.000000	64.731	2.1208
494.000000	64.702	2.6705
500.000000	64.696	3.1814
508.000000	64.680	3.7885
515.000000	64.668	4.4046
522.000000	64.655	4.9849
530.000000	64.642	5.6053
538.000000	64.636	6.3057
545.000000	64.632	6.7934
552.000000	64.623	7.4168
560.000000	64.622	8.0046
570.000000	64.614	8.8732
580.000000	64.614	9.7095
590.000000	64.613	10.4960
600.000000	64.616	11.2594
608.000000	64.617	11.9345
615.000000	64.621	12.5324
622.000000	64.630	13.1297
630.000000	64.630	13.8237
640.000000	64.645	14.5431
650.000000	64.655	15.2667
660.000000	64.682	16.1769
670.000000	64.689	16.9728
680.000000	64.713	17.8208
690.000000	64.734	18.5749
700.000000	64.754	19.4307
710.000000	64.786	20.2434
720.000000	64.812	21.0024
730.000000	64.836	21.8006
740.000000	64.867	22.5976
750.000000	64.906	23.4066
762.000000	64.940	24.4482
775.000000	64.989	25.5158
788.000000	65.036	26.5593
800.000000	65.083	27.7049
812.000000	65.133	28.8401
825.000000	65.210	30.0864
838.000000	65.307	31.1214
850.000000	65.402	31.9374
862.000000	65.494	32.7226
875.000000	65.581	33.6252
885.000000	65.640	34.2805
900.000000	65.748	35.2671
912.000000	65.829	36.1381
925.000000	65.932	36.9934
938.000000	66.028	37.7777
950.000000	66.128	38.5183
962.000000	66.218	39.2300
975.000000	66.322	40.0270
988.000000	66.430	40.7804
1000.000000	66.527	41.4206
1015.000000	66.677	42.1198
1030.000000	66.823	42.8264
1044.000000	66.952	43.4817
1060.000000	67.106	44.2136
1075.000000	67.253	44.8272
1090.000000	67.400	45.3568
1106.000000	67.555	45.8900
1120.000000	67.684	46.4030
1138.000000	67.845	47.0424
1150.000000	67.957	47.4354
1172.000000	68.155	48.1239
1180.000000	68.227	48.3227
1206.000000	68.458	49.0869
1220.000000	68.582	49.5038
1241.000000	68.768	50.1100
1250.000000	68.848	50.3721
1265.000000	68.952	50.7285
1280.000000	69.060	51.0864
1315.000000	69.303	51.9222
1320.000000	69.336	52.0689
1340.000000	69.469	52.5124
1360.000000	69.615	52.9460
1380.000000	69.757	53.3066
1400.000000	69.899	53.7022
1430.000000	70.114	54.2638
1450.000000	70.255	54.6060
1475.000000	70.444	54.9254
1500.000000	70.633	55.2149
1525.000000	70.816	55.5211
1550.000000	71.003	55.7230
1575.000000	71.196	55.8550
1600.000000	71.391	55.9145
1625.000000	71.620	55.9241
1650.000000	71.844	55.8813
1675.000000	72.065	55.7385
1700.000000	72.292	55.4581
1725.000000	72.510	55.0967
1750.000000	72.723	54.6512
1775.000000	72.927	54.1462
1800.000000	73.126	53.4592
1825.000000	73.319	52.7070
1850.000000	73.498	51.8735
1875.000000	73.670	50.9143
1900.000000	73.828	49.8505
1925.000000	73.987	48.6798
1950.000000	74.132	47.4232
1975.000000	74.269	46.0933
2000.000000	74.390	44.6858
2030.000000	74.523	42.8376
2060.000000	74.637	40.9385
2090.000000	74.733	39.0147
2120.000000	74.804	37.0538
2140.000000	74.838	35.7702
2180.000000	74.881	33.1856
2200.000000	74.888	31.9231
2240.000000	74.881	29.5104
2270.000000	74.855	27.8231
2300.000000	74.816	26.2476
2330.000000	74.764	24.7529
2360.000000	74.703	23.3922
2400.000000	74.605	21.7758
2430.000000	74.523	20.7070
2470.000000	74.412	19.4419
2500.000000	74.326	18.6119
2540.000000	74.214	17.7427
2580.000000	74.101	17.0464
2620.000000	73.990	16.5301
2650.000000	73.911	16.2432
2690.000000	73.815	15.9637
2720.000000	73.745	15.8664
2760.000000	73.658	15.8028
2800.000000	73.574	15.9263
2850.000000	73.475	16.2642
2900.000000	73.403	16.9013
2950.000000	73.357	17.8885
3000.000000	73.364	19.2807
3040.000000	73.415	20.6433
3070.000000	73.501	21.8357
3110.000000	73.705	23.3915
3150.000000	73.996	24.7347
3200.000000	74.474	25.6903
3250.000000	75.000	25.3770
3300.000000	75.509	23.6988
3350.000000	75.942	20.6980
3400.000000	76.270	16.7349
3450.000000	76.493	12.0891
3500.000000	76.610	6.9125
3550.000000	76.635	1.4467
3600.000000	76.576	-4.1074
3650.000000	76.442	-9.4267
3700.000000	76.252	-14.2615
3750.000000	75.996	-18.5516
3820.000000	75.547	-23.5632
3870.000000	75.173	-26.4599
3950.000000	74.488	-30.0329
4000.000000	74.015	-31.6573
4060.000000	73.436	-33.0585
4120.000000	72.838	-33.9926
4180.000000	72.240	-34.4877
4250.000000	71.566	-34.4337
4310.000000	71.024	-33.9985
4370.000000	70.536	-33.3078
4440.000000	70.033	-32.4048
4500.000000	69.661	-31.5622
4550.000000	69.396	-30.9823
4620.000000	69.087	-30.4688
4680.000000	68.873	-30.3353
4750.000000	68.650	-30.8991
4820.000000	68.404	-32.3641
4870.000000	68.125	-33.9364
4940.000000	67.527	-36.2196
5000.000000	66.793	-37.5683
5080.000000	65.615	-37.5284
5150.000000	64.571	-35.5093
5220.000000	63.649	-32.0574
5300.000000	62.760	-27.4011
5380.000000	62.088	-22.3788
5450.000000	61.619	-18.1480
5520.000000	61.240	-13.9714
5600.000000	60.879	-9.2484
5700.000000	60.508	-3.5174
5800.000000	60.172	2.0433
5900.000000	59.951	7.8232
6000.000000	59.806	14.7654
6080.000000	60.205	19.5342
6150.000000	60.290	21.4221
6220.000000	60.272	24.1880
6300.000000	60.327	27.6682
6400.000000	60.537	32.2933
6500.000000	60.848	36.7630
6600.000000	61.247	41.0565
6700.000000	61.707	45.0434
6800.000000	62.241	49.1987
6900.000000	62.886	52.8671
7000.000000	63.656	56.3228
7100.000000	64.495	59.1555
7200.000000	65.481	61.5933
7300.000000	66.613	62.9654
7400.000000	67.850	63.2682
7500.000000	69.206	62.1661
7620.000000	70.928	57.8773
7750.000000	72.673	48.6210
7880.000000	73.838	34.3930
8000.000000	74.095	19.5481
8120.000000	73.558	6.5860
8250.000000	72.693	-3.3289
8380.000000	71.855	-10.1179
8500.000000	71.218	-15.0229
8620.000000	70.730	-19.7470
8750.000000	70.319	-25.5054
8850.000000	70.006	-30.8676
9000.000000	69.368	-40.2984
9120.000000	68.572	-48.6282
9250.000000	67.382	-57.1756
9380.000000	65.934	-64.1553
9500.000000	64.470	-68.9604
9620.000000	63.005	-72.3686
9750.000000	61.484	-74.6906
9880.000000	60.028	-75.8133
10000.000000	58.778	-76.4132
10150.000000	57.418	-77.1822
10300.000000	56.210	-77.7695
10440.000000	55.121	-78.5535
10600.000000	53.914	-80.1996
10750.000000	52.727	-82.5841
10900.000000	51.400	-87.2687
11060.000000	49.710	-93.0770
11200.000000	48.078	-99.9503
11380.000000	44.906	-115.0819
11500.000000	42.495	-129.6573
11720.000000	38.642	173.5614
11800.000000	39.414	147.0869
12060.000000	44.465	97.4710
12200.000000	46.671	84.9308
12410.000000	48.912	71.3556
12500.000000	49.747	67.3725
12650.000000	51.156	60.2508
12800.000000	52.468	52.0584
13150.000000	53.834	22.8167
13200.000000	53.717	18.0139
13400.000000	52.403	4.1443
13600.000000	50.556	-1.9590
13800.000000	49.119	-3.7194
14000.000000	47.781	-2.6772
14300.000000	46.471	3.8941
14500.000000	45.927	9.2786
14750.000000	45.406	16.2209
15000.000000	45.605	25.0194
15250.000000	46.044	32.2804
15500.000000	47.397	40.9124
15750.000000	48.930	43.2779
16000.000000	50.919	41.8414
16250.000000	53.120	33.6742
16500.000000	54.447	19.2848
16750.000000	54.306	5.0079
17000.000000	53.294	-2.2115
17250.000000	52.230	-3.7719
17500.000000	51.819	-1.9277
17750.000000	51.482	1.3370
18000.000000	51.789	3.3009
18250.000000	52.269	4.1378
18500.000000	52.873	3.4694
18750.000000	53.171	-1.2582
19000.000000	53.131	-6.5446
19250.000000	52.684	-11.0657
19500.000000	52.231	-14.1231
19750.000000	52.010	-20.2545
