* Measurement data measured by REW V5.20.13
* Source: C:\Users\marcu\OneDrive\Desktop\Fix\ n.Blue f.Black Foam L.txt
* Format: Comma/Tab/Space delimited data
* Dated: Jul 25, 2023 5:53:16 PM
* REW Settings:
*  C-weighting compensation: Off
*  Target level: 75.0 dB
* Note: ; Measurement imported from C:\Users\marcu\OneDrive\Desktop\Fix\ n.Blue f.Black Foam L.txt Format: Comma/Tab/Space delimited data 54613 values loaded, 0 Hz to 20,000 Hz 
* Measurement:  n.Blue f.Black Foam L
* Smoothing: None
* Frequency Step: 1/48 octave
* Start Frequency: 1.000 Hz
*
* Freq(Hz)	SPL(dB)	Phase(degrees)
1.000000	71.444	-135.6741
1.015000	71.494	-137.3722
1.030000	71.543	-139.0602
1.044000	71.588	-140.6265
1.060000	71.639	-142.4060
1.075000	71.685	-144.0639
1.090000	71.730	-145.7120
1.106000	71.776	-147.4589
1.120000	71.817	-148.9772
1.138000	71.869	-150.9152
1.150000	71.903	-152.1984
1.172000	71.965	-154.5330
1.180000	71.988	-155.3762
1.206000	72.059	-158.0959
1.220000	72.098	-159.5475
1.241000	72.154	-161.7079
1.250000	72.177	-162.6277
1.265000	72.216	-164.1528
1.280000	72.254	-165.6678
1.315000	72.340	-169.1651
1.320000	72.352	-169.6604
1.340000	72.398	-171.6312
1.360000	72.442	-173.5854
1.380000	72.484	-175.5233
1.400000	72.524	-177.4452
1.430000	72.580	179.7015
1.450000	72.613	177.8185
1.475000	72.652	175.4860
1.500000	72.689	173.1783
1.525000	72.723	170.8959
1.550000	72.754	168.6388
1.575000	72.783	166.4073
1.600000	72.809	164.2017
1.625000	72.832	162.0219
1.650000	72.851	159.8684
1.675000	72.868	157.7413
1.700000	72.880	155.6406
1.725000	72.889	153.5668
1.750000	72.893	151.5198
1.775000	72.893	149.5000
1.800000	72.889	147.5074
1.825000	72.881	145.5424
1.850000	72.868	143.6022
1.875000	72.851	141.6810
1.900000	72.832	139.7804
1.925000	72.808	137.9024
1.950000	72.781	136.0490
1.975000	72.750	134.2221
2.000000	72.715	132.4238
2.030000	72.667	130.3063
2.060000	72.613	128.2361
2.090000	72.553	126.2167
2.120000	72.486	124.2515
2.140000	72.437	122.9731
2.180000	72.331	120.4971
2.200000	72.273	119.3014
2.240000	72.146	116.9487
2.270000	72.042	115.2138
2.300000	71.930	113.5152
2.330000	71.812	111.8626
2.360000	71.687	110.2661
2.400000	71.511	108.2415
2.430000	71.374	106.8140
2.470000	71.182	105.0505
2.500000	71.034	103.8456
2.540000	70.830	102.4148
2.580000	70.618	101.1962
2.620000	70.381	100.1231
2.650000	70.187	99.4098
2.690000	69.915	98.5923
2.720000	69.706	98.0875
2.760000	69.428	97.5706
2.800000	69.157	97.2458
2.850000	68.844	97.1320
2.900000	68.574	97.3699
2.950000	68.359	98.0138
3.000000	68.163	99.2586
3.040000	68.018	100.6225
3.070000	67.921	101.8041
3.110000	67.810	103.5225
3.150000	67.725	105.3259
3.200000	67.665	107.5693
3.250000	67.666	109.6450
3.300000	67.738	111.3878
3.350000	67.901	112.9789
3.400000	68.147	114.5789
3.450000	68.457	116.1221
3.500000	68.808	117.5428
3.550000	69.179	118.7754
3.600000	69.549	119.7542
3.650000	69.895	120.4134
3.700000	70.219	120.6991
3.750000	70.556	120.6394
3.820000	71.041	120.0938
3.870000	71.386	119.4586
3.950000	71.910	118.1898
4.000000	72.208	117.3358
4.060000	72.528	116.3029
4.120000	72.818	115.0802
4.180000	73.084	113.6957
4.250000	73.364	111.9652
4.310000	73.580	110.4595
4.370000	73.776	109.0036
4.440000	73.977	107.3970
4.500000	74.120	105.9968
4.550000	74.223	104.8279
4.620000	74.344	103.2258
4.680000	74.433	101.9186
4.750000	74.526	100.5153
4.820000	74.602	99.2499
4.870000	74.641	98.4021
4.940000	74.681	97.2994
5.000000	74.707	96.4384
5.080000	74.739	95.4213
5.150000	74.774	94.6658
5.220000	74.804	94.0620
5.300000	74.832	93.5277
5.380000	74.865	93.1093
5.450000	74.903	92.7971
5.520000	74.956	92.5085
5.600000	75.031	92.2865
5.700000	75.141	92.1167
5.800000	75.267	91.9409
5.900000	75.406	91.6428
6.000000	75.567	91.2859
6.080000	75.706	90.9566
6.150000	75.826	90.6194
6.220000	75.941	90.2226
6.300000	76.068	89.6813
6.400000	76.225	88.8926
6.500000	76.373	88.0268
6.600000	76.502	87.1335
6.700000	76.609	86.1836
6.800000	76.699	85.1821
6.900000	76.773	84.1974
7.000000	76.831	83.2860
7.100000	76.868	82.4073
7.200000	76.890	81.5772
7.300000	76.905	80.8319
7.400000	76.914	80.1966
7.500000	76.914	79.6545
7.620000	76.911	79.1048
7.750000	76.917	78.6166
7.880000	76.930	78.2706
8.000000	76.948	78.0057
8.120000	76.979	77.7295
8.250000	77.026	77.4586
8.380000	77.080	77.1616
8.500000	77.132	76.8141
8.620000	77.190	76.4151
8.750000	77.251	75.9318
8.850000	77.291	75.5214
9.000000	77.345	74.8331
9.120000	77.380	74.2615
9.250000	77.408	73.6469
9.380000	77.425	73.0214
9.500000	77.435	72.4658
9.620000	77.442	71.9490
9.750000	77.445	71.4197
9.880000	77.440	70.9229
10.000000	77.425	70.4999
10.150000	77.398	70.0102
10.300000	77.371	69.5298
10.440000	77.345	69.0948
10.600000	77.316	68.5923
10.750000	77.294	68.0954
10.900000	77.275	67.5811
11.060000	77.254	67.0090
11.200000	77.236	66.4865
11.380000	77.210	65.8040
11.500000	77.191	65.3439
11.720000	77.155	64.4987
11.800000	77.141	64.1953
12.060000	77.096	63.2184
12.200000	77.072	62.6992
12.410000	77.039	61.9279
12.500000	77.032	61.5984
12.650000	77.033	61.0505
12.800000	77.039	60.5068
13.150000	77.052	59.2599
13.200000	77.054	59.0866
13.400000	77.061	58.4065
13.600000	77.069	57.7495
13.800000	77.079	57.1188
14.000000	77.090	56.5022
14.300000	77.112	55.5946
14.500000	77.129	54.9853
14.750000	77.147	54.2178
15.000000	77.162	53.4464
15.250000	77.170	52.6904
15.500000	77.172	51.9690
15.750000	77.172	51.2900
16.000000	77.174	50.6568
16.250000	77.183	50.0491
16.500000	77.198	49.4532
16.750000	77.214	48.8475
17.000000	77.228	48.2250
17.250000	77.238	47.5891
17.500000	77.244	46.9470
17.750000	77.246	46.3142
18.000000	77.246	45.6931
18.250000	77.243	45.0864
18.500000	77.242	44.4847
18.750000	77.241	43.8813
19.000000	77.241	43.2700
19.250000	77.241	42.6487
19.500000	77.240	42.0215
19.750000	77.238	41.3914
20.000000	77.238	40.7635
20.299999	77.239	40.0129
20.600000	77.242	39.2646
20.900000	77.247	38.5170
21.200001	77.252	37.7723
21.400000	77.256	37.2818
21.799999	77.264	36.3225
22.000000	77.269	35.8554
22.400000	77.281	34.9435
22.700001	77.292	34.2719
23.000000	77.303	33.6051
23.299999	77.314	32.9461
23.600000	77.324	32.3012
24.000000	77.333	31.4726
24.299999	77.340	30.8755
24.700001	77.350	30.1021
25.000000	77.357	29.5279
25.400000	77.367	28.7606
25.799999	77.371	27.9930
26.200001	77.372	27.2345
26.500000	77.371	26.6760
26.900000	77.368	25.9448
27.200001	77.366	25.4020
27.600000	77.365	24.6774
28.000000	77.363	23.9423
28.500000	77.361	23.0059
29.000000	77.354	22.0698
29.500000	77.347	21.1647
30.000000	77.343	20.2967
30.400000	77.345	19.6096
30.700001	77.348	19.0872
31.100000	77.352	18.3806
31.500000	77.353	17.6774
32.000000	77.351	16.8313
32.500000	77.349	16.0269
33.000000	77.350	15.2386
33.500000	77.350	14.4503
34.000000	77.347	13.6729
34.500000	77.341	12.9170
35.000000	77.336	12.1717
35.500000	77.330	11.4209
36.000000	77.322	10.6665
36.500000	77.312	9.9222
37.000000	77.302	9.1931
37.500000	77.294	8.4711
38.200001	77.283	7.4568
38.700001	77.276	6.7277
39.500000	77.261	5.5717
40.000000	77.251	4.8704
40.599998	77.241	4.0514
41.200001	77.231	3.2427
41.799999	77.221	2.4402
42.500000	77.207	1.5231
43.099998	77.194	0.7512
43.700001	77.181	-0.0182
44.400002	77.164	-0.9081
45.000000	77.149	-1.6569
45.500000	77.137	-2.2752
46.200001	77.119	-3.1392
46.799999	77.103	-3.8745
47.500000	77.082	-4.7136
48.200001	77.061	-5.5273
48.700001	77.046	-6.0973
49.400002	77.026	-6.8897
50.000000	77.008	-7.5662
50.799999	76.982	-8.4555
51.500000	76.957	-9.2148
52.200001	76.932	-9.9589
53.000000	76.902	-10.7925
53.799999	76.870	-11.5947
54.500000	76.845	-12.2778
55.200001	76.820	-12.9617
56.000000	76.787	-13.7291
57.000000	76.746	-14.6409
58.000000	76.704	-15.5344
59.000000	76.657	-16.3765
60.000000	76.614	-17.1714
60.799999	76.582	-17.8092
61.500000	76.552	-18.3633
62.200001	76.520	-18.8977
63.000000	76.481	-19.4758
64.000000	76.435	-20.1655
65.000000	76.389	-20.8331
66.000000	76.341	-21.4785
67.000000	76.291	-22.1111
68.000000	76.238	-22.7064
69.000000	76.186	-23.2626
70.000000	76.136	-23.8027
71.000000	76.088	-24.3328
72.000000	76.037	-24.8521
73.000000	75.985	-25.3414
74.000000	75.933	-25.8024
75.000000	75.881	-26.2365
76.199997	75.821	-26.7600
77.500000	75.752	-27.3097
78.800003	75.682	-27.8367
80.000000	75.618	-28.2856
81.199997	75.556	-28.7150
82.500000	75.490	-29.1632
83.800003	75.423	-29.5950
85.000000	75.362	-29.9752
86.199997	75.301	-30.3459
87.500000	75.234	-30.7181
88.500000	75.183	-30.9948
90.000000	75.108	-31.3923
91.199997	75.045	-31.7100
92.500000	74.978	-32.0329
93.800003	74.910	-32.3407
95.000000	74.851	-32.6113
96.199997	74.792	-32.8864
97.500000	74.728	-33.1855
98.800003	74.663	-33.4681
100.000000	74.603	-33.7148
101.500000	74.527	-34.0016
103.000000	74.453	-34.2672
104.400002	74.385	-34.5042
106.000000	74.307	-34.7631
107.500000	74.234	-34.9979
109.000000	74.160	-35.2226
110.599998	74.083	-35.4385
112.000000	74.017	-35.6223
113.800003	73.933	-35.8668
115.000000	73.878	-36.0270
117.199997	73.776	-36.2814
118.000000	73.741	-36.3658
120.599998	73.628	-36.6583
122.000000	73.564	-36.8114
124.099998	73.472	-37.0320
125.000000	73.435	-37.1282
126.500000	73.376	-37.2794
128.000000	73.319	-37.4124
131.500000	73.182	-37.6815
132.000000	73.161	-37.7175
134.000000	73.080	-37.8551
136.000000	73.001	-37.9846
138.000000	72.924	-38.0967
140.000000	72.848	-38.1931
143.000000	72.732	-38.2933
145.000000	72.656	-38.3593
147.500000	72.562	-38.4545
150.000000	72.472	-38.5506
152.500000	72.389	-38.6229
155.000000	72.308	-38.6956
157.500000	72.229	-38.7702
160.000000	72.150	-38.8552
162.500000	72.064	-38.9224
165.000000	71.976	-38.9862
167.500000	71.883	-39.0328
170.000000	71.791	-39.0524
172.500000	71.698	-39.0433
175.000000	71.605	-39.0034
177.500000	71.510	-38.9543
180.000000	71.418	-38.9139
182.500000	71.325	-38.8555
185.000000	71.233	-38.7842
187.500000	71.143	-38.7231
190.000000	71.058	-38.6776
192.500000	70.979	-38.6470
195.000000	70.903	-38.6356
197.500000	70.827	-38.6276
200.000000	70.753	-38.5929
203.000000	70.674	-38.5187
206.000000	70.596	-38.4404
209.000000	70.516	-38.3553
212.000000	70.436	-38.2572
214.000000	70.381	-38.1838
218.000000	70.271	-38.0160
220.000000	70.217	-37.9103
224.000000	70.110	-37.6841
227.000000	70.032	-37.5511
230.000000	69.955	-37.4341
233.000000	69.880	-37.2977
236.000000	69.808	-37.1627
240.000000	69.713	-36.9792
243.000000	69.645	-36.8283
247.000000	69.558	-36.6470
250.000000	69.494	-36.5123
254.000000	69.414	-36.2694
258.000000	69.333	-36.0182
262.000000	69.249	-35.8141
265.000000	69.186	-35.6578
269.000000	69.106	-35.3972
272.000000	69.050	-35.2057
276.000000	68.972	-34.9524
280.000000	68.899	-34.6907
285.000000	68.806	-34.3870
290.000000	68.714	-34.0873
295.000000	68.628	-33.7168
300.000000	68.547	-33.3657
304.000000	68.487	-33.1120
307.000000	68.443	-32.9092
311.000000	68.382	-32.6396
315.000000	68.317	-32.3936
320.000000	68.241	-32.0509
325.000000	68.172	-31.6958
330.000000	68.107	-31.3442
335.000000	68.036	-30.9442
340.000000	67.961	-30.5899
345.000000	67.892	-30.2352
350.000000	67.821	-29.8890
355.000000	67.753	-29.5051
360.000000	67.694	-29.0673
365.000000	67.627	-28.6835
370.000000	67.562	-28.3388
375.000000	67.505	-27.9833
382.000000	67.430	-27.4480
387.000000	67.383	-27.0619
395.000000	67.310	-26.4592
400.000000	67.268	-26.1345
406.000000	67.211	-25.7051
412.000000	67.152	-25.2556
418.000000	67.099	-24.7577
425.000000	67.051	-24.1902
431.000000	66.999	-23.7319
437.000000	66.941	-23.3215
444.000000	66.878	-22.8112
450.000000	66.833	-22.3392
455.000000	66.796	-21.9425
462.000000	66.745	-21.3591
468.000000	66.695	-20.8719
475.000000	66.635	-20.3828
482.000000	66.590	-19.8400
487.000000	66.562	-19.4553
494.000000	66.526	-18.8910
500.000000	66.484	-18.4034
508.000000	66.437	-17.7946
515.000000	66.403	-17.2798
522.000000	66.373	-16.6997
530.000000	66.337	-16.0731
538.000000	66.299	-15.4290
545.000000	66.269	-14.8957
552.000000	66.243	-14.3528
560.000000	66.217	-13.7284
570.000000	66.176	-12.9095
580.000000	66.145	-12.1040
590.000000	66.116	-11.3011
600.000000	66.094	-10.5083
608.000000	66.079	-9.9124
615.000000	66.064	-9.3969
622.000000	66.050	-8.8468
630.000000	66.037	-8.1686
640.000000	66.024	-7.3516
650.000000	66.011	-6.5847
660.000000	65.997	-5.8558
670.000000	65.985	-5.0783
680.000000	65.981	-4.2728
690.000000	65.970	-3.4413
700.000000	65.960	-2.6738
710.000000	65.954	-1.8940
720.000000	65.956	-1.0286
730.000000	65.969	-0.0877
740.000000	65.997	0.7726
750.000000	66.032	1.5394
762.000000	66.076	2.3857
775.000000	66.117	3.3048
788.000000	66.166	4.2917
800.000000	66.199	5.1711
812.000000	66.229	6.0073
825.000000	66.264	6.8684
838.000000	66.307	7.7646
850.000000	66.340	8.5952
862.000000	66.382	9.3984
875.000000	66.426	10.2066
885.000000	66.459	10.8790
900.000000	66.521	11.8299
912.000000	66.572	12.5945
925.000000	66.627	13.3715
938.000000	66.685	14.1477
950.000000	66.745	14.8906
962.000000	66.809	15.6351
975.000000	66.876	16.3887
988.000000	66.955	17.0948
1000.000000	67.030	17.7496
1015.000000	67.133	18.5522
1030.000000	67.241	19.3569
1044.000000	67.346	20.0704
1060.000000	67.474	20.7949
1075.000000	67.596	21.4090
1090.000000	67.717	22.0665
1106.000000	67.846	22.7433
1120.000000	67.959	23.2769
1138.000000	68.104	23.8929
1150.000000	68.202	24.2790
1172.000000	68.378	24.9965
1180.000000	68.437	25.2506
1206.000000	68.641	25.9944
1220.000000	68.748	26.3527
1241.000000	68.901	26.8928
1250.000000	68.963	27.1439
1265.000000	69.056	27.5385
1280.000000	69.142	27.8807
1315.000000	69.342	28.6353
1320.000000	69.370	28.7540
1340.000000	69.477	29.2332
1360.000000	69.584	29.6765
1380.000000	69.699	30.0918
1400.000000	69.816	30.4881
1430.000000	69.992	31.0629
1450.000000	70.106	31.4742
1475.000000	70.250	31.9648
1500.000000	70.401	32.4010
1525.000000	70.556	32.8193
1550.000000	70.713	33.2486
1575.000000	70.874	33.6250
1600.000000	71.044	33.9634
1625.000000	71.238	34.3044
1650.000000	71.442	34.6146
1675.000000	71.651	34.8578
1700.000000	71.863	35.0546
1725.000000	72.077	35.2293
1750.000000	72.292	35.3751
1775.000000	72.512	35.4521
1800.000000	72.734	35.4597
1825.000000	72.963	35.4276
1850.000000	73.196	35.3215
1875.000000	73.428	35.1277
1900.000000	73.657	34.8923
1925.000000	73.884	34.6011
1950.000000	74.110	34.2099
1975.000000	74.338	33.7195
2000.000000	74.562	33.1417
2030.000000	74.814	32.3400
2060.000000	75.053	31.4143
2090.000000	75.282	30.3420
2120.000000	75.502	29.1096
2140.000000	75.642	28.2056
2180.000000	75.905	26.2285
2200.000000	76.026	25.1448
2240.000000	76.256	22.7902
2270.000000	76.417	20.8618
2300.000000	76.565	18.8173
2330.000000	76.700	16.6812
2360.000000	76.820	14.4630
2400.000000	76.956	11.4017
2430.000000	77.037	9.0751
2470.000000	77.109	5.9855
2500.000000	77.140	3.7086
2540.000000	77.152	0.7539
2580.000000	77.137	-2.0726
2620.000000	77.093	-4.7074
2650.000000	77.045	-6.5541
2690.000000	76.966	-8.8340
2720.000000	76.902	-10.4041
2760.000000	76.806	-12.3090
2800.000000	76.705	-14.0048
2850.000000	76.577	-15.8426
2900.000000	76.452	-17.4085
2950.000000	76.340	-18.7430
3000.000000	76.235	-19.8521
3040.000000	76.162	-20.6143
3070.000000	76.114	-21.1226
3110.000000	76.064	-21.7348
3150.000000	76.025	-22.2762
3200.000000	75.994	-22.8774
3250.000000	75.980	-23.4152
3300.000000	75.986	-23.9204
3350.000000	76.018	-24.4198
3400.000000	76.075	-24.9469
3450.000000	76.156	-25.5114
3500.000000	76.253	-26.1312
3550.000000	76.370	-26.8500
3600.000000	76.506	-27.6864
3650.000000	76.662	-28.6725
3700.000000	76.835	-29.8477
3750.000000	77.021	-31.2386
3820.000000	77.297	-33.6311
3870.000000	77.501	-35.7105
3950.000000	77.821	-39.8071
4000.000000	78.005	-42.8983
4060.000000	78.190	-47.1803
4120.000000	78.324	-52.0979
4180.000000	78.389	-57.5909
4250.000000	78.357	-64.5269
4310.000000	78.223	-70.6364
4370.000000	77.986	-76.5742
4440.000000	77.579	-82.9119
4500.000000	77.129	-87.6276
4550.000000	76.694	-91.0001
4620.000000	76.015	-94.8653
4680.000000	75.393	-97.4542
4750.000000	74.645	-99.7195
4820.000000	73.896	-101.2950
4870.000000	73.366	-102.0637
4940.000000	72.636	-102.6758
5000.000000	72.026	-102.8763
5080.000000	71.240	-102.7389
5150.000000	70.578	-102.2832
5220.000000	69.945	-101.5668
5300.000000	69.258	-100.4879
5380.000000	68.622	-99.1810
5450.000000	68.101	-97.8806
5520.000000	67.605	-96.4487
5600.000000	67.069	-94.6824
5700.000000	66.441	-92.2595
5800.000000	65.866	-89.5457
5900.000000	65.338	-86.4393
6000.000000	64.881	-82.7389
6080.000000	64.643	-79.3131
6150.000000	64.600	-76.6523
6220.000000	64.626	-75.1071
6300.000000	64.537	-74.1868
6400.000000	64.325	-72.4421
6500.000000	64.138	-69.9698
6600.000000	64.012	-67.2026
6700.000000	63.950	-64.3500
6800.000000	63.938	-61.4368
6900.000000	63.964	-58.5012
7000.000000	64.030	-55.5501
7100.000000	64.150	-52.6201
7200.000000	64.329	-49.7827
7300.000000	64.549	-47.0704
7400.000000	64.816	-44.4872
7500.000000	65.144	-42.0258
7620.000000	65.610	-39.2996
7750.000000	66.200	-36.6433
7880.000000	66.883	-34.4426
8000.000000	67.592	-32.9335
8120.000000	68.321	-32.1320
8250.000000	69.182	-32.2800
8380.000000	70.114	-33.8336
8500.000000	70.990	-36.9236
8620.000000	71.798	-41.8762
8750.000000	72.461	-49.4003
8850.000000	72.724	-56.3042
9000.000000	72.624	-66.9619
9120.000000	72.165	-74.3297
9250.000000	71.438	-80.2449
9380.000000	70.631	-83.9207
9500.000000	69.916	-85.6248
9620.000000	69.285	-86.0815
9750.000000	68.733	-85.5602
9880.000000	68.336	-84.2626
10000.000000	68.127	-82.5859
10150.000000	68.124	-80.1281
10300.000000	68.407	-77.6348
10440.000000	68.943	-75.7241
10600.000000	69.886	-74.8207
10750.000000	71.035	-76.1996
10900.000000	72.296	-80.7450
11060.000000	73.520	-89.7604
11200.000000	74.288	-101.1614
11380.000000	74.580	-119.3735
11500.000000	74.224	-132.0009
11720.000000	72.539	-150.9021
11800.000000	71.711	-155.6747
12060.000000	68.845	-164.1646
12200.000000	67.415	-165.5143
12410.000000	65.562	-165.0033
12500.000000	64.871	-164.1620
12650.000000	63.837	-162.2115
12800.000000	62.957	-159.8001
13150.000000	61.547	-153.5336
13200.000000	61.417	-152.6488
13400.000000	61.069	-149.3636
13600.000000	60.992	-146.8724
13800.000000	61.214	-145.8828
14000.000000	61.709	-147.3555
14300.000000	62.581	-157.3049
14500.000000	62.642	-170.3281
14750.000000	61.312	171.0568
15000.000000	58.663	158.5469
15250.000000	55.695	153.9425
15500.000000	52.975	154.5356
15750.000000	50.637	158.0967
16000.000000	48.707	163.3953
16250.000000	47.338	169.9513
16500.000000	46.473	176.9581
16750.000000	45.844	-176.7643
17000.000000	45.285	-170.0958
17250.000000	44.967	-163.1741
17500.000000	44.849	-156.3678
17750.000000	44.948	-149.8816
18000.000000	45.230	-144.1322
18250.000000	45.719	-139.6364
18500.000000	46.376	-136.9933
18750.000000	47.088	-137.2361
19000.000000	47.598	-141.3365
19250.000000	47.568	-148.9576
19500.000000	46.664	-157.2874
19750.000000	44.974	-162.7463
