* Measurement data measured by REW V5.20.13
* Source: C:\Users\marcu\OneDrive\Desktop\Fix\ n.Black f.Gold Foam L.txt
* Format: Comma/Tab/Space delimited data
* Dated: Jul 14, 2023 7:50:56 PM
* REW Settings:
*  C-weighting compensation: Off
*  Target level: 75.0 dB
* Note: ; Measurement imported from C:\Users\marcu\OneDrive\Desktop\Fix\ n.Black f.Gold Foam L.txt Format: Comma/Tab/Space delimited data 54613 values loaded, 0 Hz to 20,000 Hz 
* Measurement:  n.Black f.Gold Foam L
* Smoothing: None
* Frequency Step: 1/48 octave
* Start Frequency: 1.000 Hz
*
* Freq(Hz)	SPL(dB)	Phase(degrees)
1.000000	72.128	-139.9261
1.015000	72.175	-141.6412
1.030000	72.222	-143.3470
1.044000	72.265	-144.9309
1.060000	72.312	-146.7317
1.075000	72.355	-148.4110
1.090000	72.396	-150.0821
1.106000	72.438	-151.8552
1.120000	72.475	-153.3968
1.138000	72.521	-155.3647
1.150000	72.552	-156.6680
1.172000	72.606	-159.0398
1.180000	72.626	-159.8967
1.206000	72.688	-162.6612
1.220000	72.720	-164.1372
1.241000	72.767	-166.3350
1.250000	72.787	-167.2711
1.265000	72.818	-168.8235
1.280000	72.849	-170.3664
1.315000	72.917	-173.9306
1.320000	72.926	-174.4357
1.340000	72.961	-176.4464
1.360000	72.994	-178.4417
1.380000	73.025	179.5781
1.400000	73.052	177.6126
1.430000	73.089	174.6912
1.450000	73.110	172.7609
1.475000	73.133	170.3670
1.500000	73.152	167.9949
1.525000	73.168	165.6451
1.550000	73.182	163.3181
1.575000	73.192	161.0145
1.600000	73.199	158.7348
1.625000	73.202	156.4794
1.650000	73.201	154.2487
1.675000	73.195	152.0435
1.700000	73.186	149.8640
1.725000	73.171	147.7108
1.750000	73.152	145.5844
1.775000	73.128	143.4853
1.800000	73.098	141.4139
1.825000	73.062	139.3708
1.850000	73.022	137.3513
1.875000	72.978	135.3450
1.900000	72.930	133.3547
1.925000	72.878	131.3838
1.950000	72.821	129.4356
1.975000	72.760	127.5134
2.000000	72.694	125.6207
2.030000	72.607	123.3929
2.060000	72.513	121.2180
2.090000	72.410	119.1018
2.120000	72.297	117.0501
2.140000	72.217	115.7210
2.180000	72.043	113.1632
2.200000	71.949	111.9376
2.240000	71.746	109.5024
2.270000	71.581	107.6823
2.300000	71.406	105.8903
2.330000	71.222	104.1468
2.360000	71.029	102.4720
2.400000	70.759	100.3816
2.430000	70.549	98.9470
2.470000	70.258	97.2507
2.500000	70.034	96.1674
2.540000	69.728	95.0136
2.580000	69.410	94.2229
2.620000	69.041	93.7108
2.650000	68.734	93.4942
2.690000	68.303	93.4296
2.720000	67.972	93.5500
2.760000	67.539	93.9366
2.800000	67.131	94.5826
2.850000	66.687	95.7567
2.900000	66.354	97.3404
2.950000	66.161	99.3995
3.000000	66.075	102.3975
3.040000	66.068	105.3572
3.070000	66.096	107.7910
3.110000	66.175	111.1827
3.150000	66.297	114.5834
3.200000	66.503	118.5833
3.250000	66.760	121.9893
3.300000	67.060	124.4657
3.350000	67.448	126.1384
3.400000	67.935	127.3004
3.450000	68.490	128.0206
3.500000	69.080	128.3676
3.550000	69.674	128.4101
3.600000	70.238	128.2169
3.650000	70.741	127.8566
3.700000	71.176	127.2909
3.750000	71.586	126.3422
3.820000	72.122	124.5155
3.870000	72.478	122.9714
3.950000	72.998	120.3248
4.000000	73.292	118.6945
4.060000	73.610	116.8453
4.120000	73.888	114.8973
4.180000	74.128	112.8629
4.250000	74.369	110.4575
4.310000	74.547	108.4341
4.370000	74.704	106.5071
4.440000	74.861	104.4050
4.500000	74.962	102.6388
4.550000	75.026	101.2055
4.620000	75.093	99.2922
4.680000	75.135	97.7703
4.750000	75.175	96.1738
4.820000	75.201	94.7820
4.870000	75.203	93.8901
4.940000	75.192	92.7815
5.000000	75.176	91.9593
5.080000	75.163	91.0436
5.150000	75.168	90.4149
5.220000	75.177	90.0102
5.300000	75.190	89.7720
5.380000	75.218	89.6750
5.450000	75.261	89.6255
5.520000	75.331	89.5544
5.600000	75.441	89.5753
5.700000	75.612	89.6870
5.800000	75.808	89.7141
5.900000	76.016	89.4866
6.000000	76.255	89.0712
6.080000	76.456	88.6260
6.150000	76.630	88.1520
6.220000	76.793	87.5976
6.300000	76.966	86.8389
6.400000	77.176	85.7088
6.500000	77.369	84.4678
6.600000	77.533	83.2123
6.700000	77.667	81.9059
6.800000	77.775	80.5436
6.900000	77.861	79.2174
7.000000	77.928	78.0048
7.100000	77.969	76.8565
7.200000	77.991	75.7848
7.300000	78.007	74.8265
7.400000	78.019	74.0122
7.500000	78.021	73.3275
7.620000	78.023	72.6302
7.750000	78.042	71.9855
7.880000	78.072	71.5035
8.000000	78.112	71.1054
8.120000	78.166	70.6605
8.250000	78.242	70.1781
8.380000	78.326	69.6403
8.500000	78.400	69.0385
8.620000	78.479	68.3527
8.750000	78.557	67.5446
8.850000	78.606	66.8857
9.000000	78.667	65.8122
9.120000	78.704	64.9420
9.250000	78.729	64.0301
9.380000	78.740	63.1257
9.500000	78.742	62.3340
9.620000	78.741	61.6074
9.750000	78.734	60.8769
9.880000	78.719	60.1942
10.000000	78.697	59.6123
10.150000	78.660	58.9405
10.300000	78.625	58.2739
10.440000	78.593	57.6611
10.600000	78.559	56.9493
10.750000	78.531	56.2432
10.900000	78.505	55.5125
11.060000	78.474	54.7148
11.200000	78.443	53.9964
11.380000	78.401	53.0812
11.500000	78.371	52.4822
11.720000	78.313	51.4115
11.800000	78.292	51.0371
12.060000	78.227	49.8606
12.200000	78.195	49.2408
12.410000	78.154	48.3247
12.500000	78.143	47.9275
12.650000	78.136	47.2609
12.800000	78.134	46.5918
13.150000	78.123	45.0223
13.200000	78.121	44.8039
13.400000	78.110	43.9440
13.600000	78.099	43.1257
13.800000	78.089	42.3593
14.000000	78.082	41.6296
14.300000	78.081	40.5882
14.500000	78.088	39.8958
14.750000	78.098	39.0130
15.000000	78.108	38.1060
15.250000	78.110	37.1934
15.500000	78.106	36.3109
15.750000	78.096	35.4769
16.000000	78.087	34.7113
16.250000	78.084	33.9938
16.500000	78.089	33.3072
16.750000	78.097	32.6213
17.000000	78.107	31.9198
17.250000	78.114	31.2058
17.500000	78.116	30.4873
17.750000	78.114	29.7872
18.000000	78.109	29.1109
18.250000	78.103	28.4637
18.500000	78.099	27.8320
18.750000	78.098	27.2047
19.000000	78.097	26.5718
19.250000	78.096	25.9285
19.500000	78.094	25.2816
19.750000	78.090	24.6364
20.000000	78.086	24.0021
20.299999	78.082	23.2559
20.600000	78.081	22.5233
20.900000	78.080	21.7994
21.200001	78.078	21.0829
21.400000	78.077	20.6135
21.799999	78.077	19.7004
22.000000	78.077	19.2571
22.400000	78.080	18.3884
22.700001	78.084	17.7400
23.000000	78.087	17.0879
23.299999	78.087	16.4412
23.600000	78.084	15.8140
24.000000	78.076	15.0266
24.299999	78.071	14.4726
24.700001	78.067	13.7615
25.000000	78.066	13.2297
25.400000	78.063	12.5103
25.799999	78.055	11.7899
26.200001	78.044	11.0867
26.500000	78.035	10.5742
26.900000	78.022	9.9052
27.200001	78.011	9.4088
27.600000	77.998	8.7518
28.000000	77.984	8.1014
28.500000	77.968	7.2932
29.000000	77.953	6.4806
29.500000	77.934	5.6732
30.000000	77.914	4.8986
30.400000	77.900	4.3051
30.700001	77.892	3.8667
31.100000	77.881	3.2806
31.500000	77.868	2.6956
32.000000	77.849	1.9879
32.500000	77.829	1.3198
33.000000	77.812	0.6727
33.500000	77.794	0.0263
34.000000	77.772	-0.6091
34.500000	77.747	-1.2140
35.000000	77.724	-1.7947
35.500000	77.702	-2.3767
36.000000	77.680	-2.9712
36.500000	77.654	-3.5646
37.000000	77.624	-4.1348
37.500000	77.596	-4.6727
38.200001	77.564	-5.3998
38.700001	77.546	-5.9375
39.500000	77.509	-6.8383
40.000000	77.480	-7.3741
40.599998	77.445	-7.9534
41.200001	77.416	-8.4982
41.799999	77.389	-9.0514
42.500000	77.353	-9.6946
43.099998	77.320	-10.2140
43.700001	77.289	-10.7111
44.400002	77.255	-11.2972
45.000000	77.224	-11.8107
45.500000	77.194	-12.2261
46.200001	77.153	-12.7720
46.799999	77.122	-13.2316
47.500000	77.086	-13.7861
48.200001	77.045	-14.3264
48.700001	77.016	-14.6888
49.400002	76.979	-15.1851
50.000000	76.947	-15.6112
50.799999	76.904	-16.1641
51.500000	76.866	-16.6354
52.200001	76.828	-17.1007
53.000000	76.784	-17.6188
53.799999	76.738	-18.1282
54.500000	76.697	-18.5631
55.200001	76.656	-18.9794
56.000000	76.609	-19.4338
57.000000	76.555	-19.9841
58.000000	76.502	-20.5656
59.000000	76.441	-21.1274
60.000000	76.384	-21.6169
60.799999	76.343	-22.0202
61.500000	76.303	-22.3785
62.200001	76.263	-22.7130
63.000000	76.218	-23.0810
64.000000	76.160	-23.5442
65.000000	76.100	-23.9847
66.000000	76.040	-24.4125
67.000000	75.981	-24.8251
68.000000	75.924	-25.2294
69.000000	75.867	-25.6475
70.000000	75.807	-26.0532
71.000000	75.748	-26.4291
72.000000	75.689	-26.7889
73.000000	75.632	-27.1309
74.000000	75.574	-27.4791
75.000000	75.514	-27.7987
76.199997	75.449	-28.1756
77.500000	75.373	-28.6190
78.800003	75.296	-29.0202
80.000000	75.227	-29.3743
81.199997	75.163	-29.7023
82.500000	75.096	-30.0659
83.800003	75.026	-30.4315
85.000000	74.959	-30.7289
86.199997	74.892	-31.0094
87.500000	74.822	-31.3050
88.500000	74.769	-31.5415
90.000000	74.687	-31.8876
91.199997	74.623	-32.1595
92.500000	74.555	-32.4515
93.800003	74.486	-32.7123
95.000000	74.425	-32.9399
96.199997	74.363	-33.1509
97.500000	74.296	-33.3643
98.800003	74.230	-33.5754
100.000000	74.168	-33.7787
101.500000	74.090	-34.0284
103.000000	74.016	-34.2581
104.400002	73.950	-34.4698
106.000000	73.874	-34.7173
107.500000	73.798	-34.9286
109.000000	73.723	-35.1143
110.599998	73.647	-35.2986
112.000000	73.584	-35.4734
113.800003	73.499	-35.7000
115.000000	73.445	-35.8231
117.199997	73.343	-36.0486
118.000000	73.306	-36.1206
120.599998	73.190	-36.3260
122.000000	73.129	-36.4453
124.099998	73.036	-36.6244
125.000000	72.997	-36.6952
126.500000	72.934	-36.8124
128.000000	72.873	-36.9089
131.500000	72.742	-37.1316
132.000000	72.723	-37.1643
134.000000	72.646	-37.2770
136.000000	72.570	-37.3575
138.000000	72.495	-37.4396
140.000000	72.423	-37.5218
143.000000	72.317	-37.6424
145.000000	72.247	-37.7008
147.500000	72.157	-37.7703
150.000000	72.070	-37.8249
152.500000	71.987	-37.8621
155.000000	71.905	-37.8920
157.500000	71.823	-37.9265
160.000000	71.738	-37.9503
162.500000	71.647	-37.9428
165.000000	71.557	-37.9294
167.500000	71.468	-37.9365
170.000000	71.378	-37.9425
172.500000	71.288	-37.9196
175.000000	71.200	-37.8722
177.500000	71.112	-37.8314
180.000000	71.028	-37.7777
182.500000	70.948	-37.7155
185.000000	70.866	-37.6445
187.500000	70.784	-37.5740
190.000000	70.703	-37.5237
192.500000	70.625	-37.4666
195.000000	70.549	-37.3762
197.500000	70.472	-37.2701
200.000000	70.396	-37.1747
203.000000	70.310	-37.0723
206.000000	70.233	-36.9537
209.000000	70.154	-36.8063
212.000000	70.074	-36.6559
214.000000	70.021	-36.5684
218.000000	69.916	-36.4070
220.000000	69.865	-36.2960
224.000000	69.771	-36.0706
227.000000	69.699	-35.8969
230.000000	69.630	-35.7184
233.000000	69.561	-35.5535
236.000000	69.492	-35.3915
240.000000	69.405	-35.1779
243.000000	69.338	-35.0135
247.000000	69.250	-34.7770
250.000000	69.188	-34.5621
254.000000	69.104	-34.2739
258.000000	69.023	-33.9681
262.000000	68.946	-33.6923
265.000000	68.886	-33.4982
269.000000	68.807	-33.2491
272.000000	68.751	-33.0535
276.000000	68.679	-32.7675
280.000000	68.609	-32.4681
285.000000	68.524	-32.0898
290.000000	68.443	-31.6993
295.000000	68.353	-31.3181
300.000000	68.267	-30.9091
304.000000	68.205	-30.5956
307.000000	68.161	-30.3695
311.000000	68.101	-30.0557
315.000000	68.039	-29.7183
320.000000	67.968	-29.2913
325.000000	67.899	-28.9188
330.000000	67.830	-28.5249
335.000000	67.766	-28.1218
340.000000	67.700	-27.6921
345.000000	67.636	-27.2631
350.000000	67.575	-26.8419
355.000000	67.512	-26.4086
360.000000	67.455	-25.9917
365.000000	67.397	-25.5657
370.000000	67.338	-25.1398
375.000000	67.285	-24.7146
382.000000	67.217	-24.1077
387.000000	67.163	-23.6918
395.000000	67.082	-23.0366
400.000000	67.037	-22.6075
406.000000	66.982	-22.0846
412.000000	66.926	-21.5691
418.000000	66.867	-21.0383
425.000000	66.802	-20.4359
431.000000	66.755	-19.9313
437.000000	66.710	-19.4222
444.000000	66.656	-18.8181
450.000000	66.609	-18.3160
455.000000	66.570	-17.8707
462.000000	66.521	-17.2507
468.000000	66.482	-16.7072
475.000000	66.433	-16.0848
482.000000	66.385	-15.4785
487.000000	66.352	-15.0505
494.000000	66.309	-14.4342
500.000000	66.275	-13.8965
508.000000	66.234	-13.1702
515.000000	66.196	-12.5529
522.000000	66.161	-11.9475
530.000000	66.124	-11.2201
538.000000	66.094	-10.4890
545.000000	66.068	-9.8670
552.000000	66.038	-9.2474
560.000000	66.007	-8.5513
570.000000	65.974	-7.6556
580.000000	65.942	-6.7505
590.000000	65.912	-5.8452
600.000000	65.886	-4.9512
608.000000	65.869	-4.2425
615.000000	65.857	-3.6172
622.000000	65.847	-2.9841
630.000000	65.835	-2.2673
640.000000	65.824	-1.3947
650.000000	65.813	-0.5031
660.000000	65.803	0.4028
670.000000	65.798	1.2733
680.000000	65.795	2.1555
690.000000	65.792	3.0526
700.000000	65.792	3.9108
710.000000	65.793	4.8238
720.000000	65.799	5.7610
730.000000	65.808	6.7233
740.000000	65.831	7.6715
750.000000	65.857	8.5881
762.000000	65.892	9.6278
775.000000	65.934	10.7285
788.000000	65.977	11.7969
800.000000	66.015	12.7917
812.000000	66.046	13.7881
825.000000	66.090	14.8452
838.000000	66.134	15.8646
850.000000	66.180	16.8082
862.000000	66.229	17.7209
875.000000	66.284	18.7032
885.000000	66.329	19.4323
900.000000	66.398	20.4956
912.000000	66.453	21.3527
925.000000	66.514	22.2520
938.000000	66.580	23.1301
950.000000	66.644	23.9284
962.000000	66.710	24.7052
975.000000	66.784	25.5144
988.000000	66.858	26.3104
1000.000000	66.932	27.0434
1015.000000	67.036	27.9680
1030.000000	67.140	28.8283
1044.000000	67.242	29.6179
1060.000000	67.365	30.4959
1075.000000	67.479	31.2754
1090.000000	67.595	32.0220
1106.000000	67.721	32.7943
1120.000000	67.832	33.4648
1138.000000	67.973	34.2661
1150.000000	68.068	34.7849
1172.000000	68.240	35.7152
1180.000000	68.302	36.0392
1206.000000	68.496	37.0670
1220.000000	68.604	37.5843
1241.000000	68.763	38.3511
1250.000000	68.825	38.6690
1265.000000	68.917	39.2013
1280.000000	69.003	39.7293
1315.000000	69.203	40.8773
1320.000000	69.231	41.0405
1340.000000	69.342	41.7005
1360.000000	69.456	42.3654
1380.000000	69.572	42.9774
1400.000000	69.691	43.5717
1430.000000	69.871	44.5085
1450.000000	69.993	45.0932
1475.000000	70.154	45.7799
1500.000000	70.317	46.4637
1525.000000	70.474	47.1340
1550.000000	70.630	47.8152
1575.000000	70.798	48.4500
1600.000000	70.987	49.0079
1625.000000	71.209	49.5147
1650.000000	71.433	50.0168
1675.000000	71.655	50.5152
1700.000000	71.879	50.9496
1725.000000	72.114	51.3105
1750.000000	72.354	51.6232
1775.000000	72.592	51.8878
1800.000000	72.834	52.1081
1825.000000	73.076	52.2590
1850.000000	73.323	52.3294
1875.000000	73.573	52.3298
1900.000000	73.822	52.2610
1925.000000	74.071	52.1234
1950.000000	74.319	51.8919
1975.000000	74.566	51.5726
2000.000000	74.811	51.1693
2030.000000	75.099	50.5604
2060.000000	75.380	49.7903
2090.000000	75.651	48.8895
2120.000000	75.909	47.8553
2140.000000	76.071	47.0885
2180.000000	76.378	45.3603
2200.000000	76.521	44.4050
2240.000000	76.786	42.3154
2270.000000	76.961	40.6153
2300.000000	77.112	38.8318
2330.000000	77.235	36.9839
2360.000000	77.333	35.0843
2400.000000	77.435	32.4815
2430.000000	77.484	30.5163
2470.000000	77.508	27.9835
2500.000000	77.498	26.1423
2540.000000	77.460	23.8002
2580.000000	77.400	21.6033
2620.000000	77.318	19.6052
2650.000000	77.243	18.2372
2690.000000	77.127	16.5995
2720.000000	77.035	15.5253
2760.000000	76.915	14.2297
2800.000000	76.799	13.1152
2850.000000	76.655	11.9894
2900.000000	76.515	11.1300
2950.000000	76.392	10.4438
3000.000000	76.291	9.9486
3040.000000	76.221	9.6669
3070.000000	76.176	9.4969
3110.000000	76.130	9.3414
3150.000000	76.096	9.2341
3200.000000	76.078	9.1493
3250.000000	76.088	9.0735
3300.000000	76.117	9.0205
3350.000000	76.163	8.9727
3400.000000	76.236	8.8600
3450.000000	76.336	8.6719
3500.000000	76.460	8.3806
3550.000000	76.603	7.9691
3600.000000	76.763	7.4089
3650.000000	76.944	6.6447
3700.000000	77.142	5.6434
3750.000000	77.353	4.3646
3820.000000	77.653	2.0524
3870.000000	77.862	-0.0406
3950.000000	78.164	-4.2323
4000.000000	78.317	-7.4191
4060.000000	78.436	-11.7862
4120.000000	78.465	-16.6429
4180.000000	78.385	-21.8219
4250.000000	78.145	-27.9695
4310.000000	77.814	-33.0293
4370.000000	77.373	-37.6260
4440.000000	76.744	-42.2307
4500.000000	76.136	-45.4283
4550.000000	75.599	-47.5857
4620.000000	74.821	-49.8515
4680.000000	74.148	-51.1622
4750.000000	73.370	-52.0763
4820.000000	72.615	-52.3920
4870.000000	72.092	-52.3180
4940.000000	71.383	-51.8528
5000.000000	70.797	-51.1621
5080.000000	70.046	-49.8959
5150.000000	69.429	-48.5311
5220.000000	68.849	-46.9318
5300.000000	68.224	-44.8861
5380.000000	67.642	-42.6194
5450.000000	67.169	-40.5265
5520.000000	66.719	-38.3040
5600.000000	66.238	-35.6321
5700.000000	65.682	-32.1075
5800.000000	65.172	-28.3402
5900.000000	64.709	-24.3184
6000.000000	64.302	-19.8585
6080.000000	64.063	-15.8639
6150.000000	63.977	-12.3558
6220.000000	64.004	-9.5176
6300.000000	64.016	-7.3821
6400.000000	63.913	-4.7836
6500.000000	63.788	-1.4905
6600.000000	63.711	2.1513
6700.000000	63.689	5.9442
6800.000000	63.720	9.7878
6900.000000	63.803	13.6147
7000.000000	63.925	17.4267
7100.000000	64.096	21.2199
7200.000000	64.330	24.8828
7300.000000	64.618	28.3991
7400.000000	64.953	31.7360
7500.000000	65.330	34.8999
7620.000000	65.850	38.4297
7750.000000	66.504	41.7935
7880.000000	67.254	44.5406
8000.000000	68.009	46.3687
8120.000000	68.752	47.2812
8250.000000	69.587	46.9812
8380.000000	70.426	44.9904
8500.000000	71.122	41.4563
8620.000000	71.634	36.3874
8750.000000	71.878	29.7389
8850.000000	71.808	24.5266
9000.000000	71.336	17.8483
9120.000000	70.753	14.1686
9250.000000	70.045	12.0060
9380.000000	69.360	11.5037
9500.000000	68.807	12.2200
9620.000000	68.364	13.7584
9750.000000	68.017	16.1142
9880.000000	67.824	18.9602
10000.000000	67.817	21.8265
10150.000000	68.080	25.4099
10300.000000	68.632	28.5636
10440.000000	69.405	30.5289
10600.000000	70.562	30.5835
10750.000000	71.771	27.5168
10900.000000	72.868	20.8179
11060.000000	73.658	10.1039
11200.000000	73.880	-1.1814
11380.000000	73.426	-16.1326
11500.000000	72.679	-24.9134
11720.000000	70.690	-36.0119
11800.000000	69.878	-38.3057
12060.000000	67.305	-40.6110
12200.000000	66.087	-39.5881
12410.000000	64.540	-36.2258
12500.000000	63.973	-34.3435
12650.000000	63.136	-30.8425
12800.000000	62.447	-27.0803
13150.000000	61.450	-18.4227
13200.000000	61.377	-17.2894
13400.000000	61.270	-13.3778
13600.000000	61.424	-11.0099
13800.000000	61.776	-11.1841
14000.000000	62.172	-15.1125
14300.000000	62.024	-28.6631
14500.000000	60.929	-39.4490
14750.000000	58.553	-48.5312
15000.000000	55.801	-50.9094
15250.000000	53.203	-48.3499
15500.000000	50.939	-42.8639
15750.000000	49.015	-35.7092
16000.000000	47.437	-27.4026
16250.000000	46.388	-18.0988
16500.000000	45.761	-8.4291
16750.000000	45.412	0.3494
17000.000000	45.145	8.8340
17250.000000	45.050	17.7297
17500.000000	45.170	26.0259
17750.000000	45.490	33.5052
18000.000000	45.990	40.0139
18250.000000	46.612	44.3040
18500.000000	47.240	45.7016
18750.000000	47.649	43.8479
19000.000000	47.493	39.0575
19250.000000	46.541	34.1172
19500.000000	44.920	31.8813
19750.000000	42.998	33.2551
