* Measurement data measured by REW V5.20.13
* Source: C:\Users\marcu\OneDrive\Desktop\Fix\ n.Gold f.Gold Foam R.txt
* Format: Comma/Tab/Space delimited data
* Dated: Jul 25, 2023 9:51:54 PM
* REW Settings:
*  C-weighting compensation: Off
*  Target level: 75.0 dB
* Note: ; Measurement imported from C:\Users\marcu\OneDrive\Desktop\Fix\ n.Gold f.Gold Foam R.txt Format: Comma/Tab/Space delimited data 54613 values loaded, 0 Hz to 20,000 Hz 
* Measurement:  n.Gold f.Gold Foam R
* Smoothing: None
* Frequency Step: 1/48 octave
* Start Frequency: 1.000 Hz
*
* Freq(Hz)	SPL(dB)	Phase(degrees)
1.000000	77.805	-109.0811
1.015000	77.755	-111.0080
1.030000	77.707	-112.9375
1.044000	77.664	-114.7402
1.060000	77.618	-116.8018
1.075000	77.577	-118.7352
1.090000	77.540	-120.6684
1.106000	77.504	-122.7320
1.120000	77.474	-124.5530
1.138000	77.437	-126.9167
1.150000	77.414	-128.5051
1.172000	77.375	-131.4393
1.180000	77.362	-132.5125
1.206000	77.322	-136.0180
1.220000	77.302	-137.9144
1.241000	77.275	-140.7659
1.250000	77.265	-141.9893
1.265000	77.248	-144.0288
1.280000	77.233	-146.0670
1.315000	77.204	-150.8064
1.320000	77.201	-151.4806
1.340000	77.189	-154.1669
1.360000	77.179	-156.8333
1.380000	77.171	-159.4751
1.400000	77.166	-162.0877
1.430000	77.163	-165.9414
1.450000	77.164	-168.4603
1.475000	77.168	-171.5493
1.500000	77.181	-174.6108
1.525000	77.200	-177.6519
1.550000	77.226	179.3307
1.575000	77.258	176.3404
1.600000	77.294	173.3806
1.625000	77.334	170.4547
1.650000	77.375	167.5661
1.675000	77.418	164.7181
1.700000	77.461	161.9141
1.725000	77.503	159.1576
1.750000	77.543	156.4519
1.775000	77.580	153.8004
1.800000	77.613	151.2065
1.825000	77.640	148.6735
1.850000	77.664	146.2004
1.875000	77.688	143.7777
1.900000	77.713	141.4048
1.925000	77.738	139.0812
1.950000	77.762	136.8068
1.975000	77.785	134.5809
2.000000	77.806	132.4034
2.030000	77.828	129.8538
2.060000	77.845	127.3726
2.090000	77.857	124.9594
2.120000	77.863	122.6135
2.140000	77.862	121.0866
2.180000	77.850	118.1212
2.200000	77.837	116.6823
2.240000	77.802	113.8808
2.270000	77.769	111.8471
2.300000	77.729	109.8751
2.330000	77.683	107.9684
2.360000	77.631	106.1307
2.400000	77.553	103.7936
2.430000	77.488	102.1305
2.470000	77.392	100.0393
2.500000	77.313	98.5703
2.540000	77.200	96.7509
2.580000	77.077	95.0933
2.620000	76.933	93.5618
2.650000	76.813	92.4958
2.690000	76.640	91.1942
2.720000	76.504	90.3141
2.760000	76.318	89.2780
2.800000	76.132	88.4096
2.850000	75.908	87.5779
2.900000	75.702	87.0492
2.950000	75.519	86.8589
3.000000	75.330	87.1057
3.040000	75.175	87.5804
3.070000	75.062	88.0673
3.110000	74.919	88.8531
3.150000	74.791	89.7521
3.200000	74.665	90.9631
3.250000	74.587	92.1853
3.300000	74.571	93.3284
3.350000	74.622	94.5685
3.400000	74.730	96.0041
3.450000	74.883	97.5350
3.500000	75.071	99.0610
3.550000	75.282	100.4821
3.600000	75.506	101.6982
3.650000	75.730	102.6090
3.700000	75.959	103.1734
3.750000	76.219	103.4984
3.820000	76.618	103.6152
3.870000	76.912	103.4971
3.950000	77.369	103.0401
4.000000	77.629	102.6329
4.060000	77.904	102.0362
4.120000	78.159	101.1984
4.180000	78.398	100.1619
4.250000	78.653	98.7949
4.310000	78.849	97.5681
4.370000	79.022	96.3643
4.440000	79.191	95.0151
4.500000	79.307	93.7922
4.550000	79.387	92.7467
4.620000	79.476	91.2911
4.680000	79.534	90.0961
4.750000	79.587	88.8215
4.820000	79.619	87.6779
4.870000	79.624	86.9007
4.940000	79.614	85.8852
5.000000	79.594	85.0988
5.080000	79.564	84.1986
5.150000	79.542	83.5768
5.220000	79.511	83.1241
5.300000	79.468	82.7796
5.380000	79.427	82.5733
5.450000	79.405	82.4681
5.520000	79.404	82.4113
5.600000	79.419	82.4977
5.700000	79.459	82.7535
5.800000	79.523	83.0061
5.900000	79.614	83.1026
6.000000	79.740	83.1360
6.080000	79.858	83.1064
6.150000	79.963	83.0088
6.220000	80.064	82.8193
6.300000	80.178	82.4719
6.400000	80.326	81.8761
6.500000	80.467	81.1560
6.600000	80.586	80.3704
6.700000	80.682	79.4795
6.800000	80.761	78.4929
6.900000	80.821	77.5019
7.000000	80.861	76.5812
7.100000	80.877	75.6733
7.200000	80.876	74.8047
7.300000	80.867	74.0304
7.400000	80.851	73.3853
7.500000	80.823	72.8420
7.620000	80.787	72.3078
7.750000	80.763	71.8666
7.880000	80.747	71.6027
8.000000	80.745	71.4266
8.120000	80.761	71.2375
8.250000	80.799	71.0703
8.380000	80.848	70.8666
8.500000	80.901	70.5790
8.620000	80.964	70.2216
8.750000	81.032	69.7636
8.850000	81.077	69.3571
9.000000	81.139	68.6467
9.120000	81.181	68.0473
9.250000	81.213	67.4012
9.380000	81.233	66.7374
9.500000	81.245	66.1527
9.620000	81.253	65.6198
9.750000	81.255	65.0823
9.880000	81.250	64.5907
10.000000	81.236	64.1877
10.150000	81.209	63.7397
10.300000	81.184	63.3114
10.440000	81.161	62.9363
10.600000	81.138	62.5083
10.750000	81.121	62.0811
10.900000	81.108	61.6383
11.060000	81.093	61.1418
11.200000	81.078	60.6847
11.380000	81.056	60.0887
11.500000	81.039	59.6887
11.720000	81.005	58.9571
11.800000	80.991	58.6967
12.060000	80.945	57.8623
12.200000	80.919	57.4181
12.410000	80.883	56.7560
12.500000	80.874	56.4698
12.650000	80.871	55.9897
12.800000	80.871	55.5092
13.150000	80.866	54.3916
13.200000	80.865	54.2359
13.400000	80.857	53.6240
13.600000	80.849	53.0338
13.800000	80.843	52.4702
14.000000	80.840	51.9146
14.300000	80.841	51.0822
14.500000	80.845	50.5020
14.750000	80.849	49.7434
15.000000	80.850	48.9498
15.250000	80.844	48.1474
15.500000	80.832	47.3668
15.750000	80.817	46.6228
16.000000	80.806	45.9276
16.250000	80.804	45.2593
16.500000	80.811	44.6025
16.750000	80.822	43.9319
17.000000	80.835	43.2393
17.250000	80.845	42.5306
17.500000	80.852	41.8168
17.750000	80.856	41.1198
18.000000	80.859	40.4442
18.250000	80.862	39.7949
18.500000	80.866	39.1606
18.750000	80.872	38.5333
19.000000	80.879	37.9054
19.250000	80.885	37.2748
19.500000	80.890	36.6470
19.750000	80.894	36.0255
20.000000	80.897	35.4159
20.299999	80.902	34.6965
20.600000	80.909	33.9859
20.900000	80.914	33.2786
21.200001	80.918	32.5744
21.400000	80.919	32.1108
21.799999	80.921	31.2037
22.000000	80.922	30.7602
22.400000	80.927	29.8844
22.700001	80.931	29.2243
23.000000	80.935	28.5535
23.299999	80.937	27.8776
23.600000	80.937	27.2075
24.000000	80.934	26.3377
24.299999	80.933	25.7050
24.700001	80.934	24.8739
25.000000	80.937	24.2484
25.400000	80.940	23.4072
25.799999	80.940	22.5706
26.200001	80.939	21.7546
26.500000	80.939	21.1580
26.900000	80.939	20.3763
27.200001	80.940	19.7949
27.600000	80.941	19.0240
28.000000	80.941	18.2617
28.500000	80.941	17.3228
29.000000	80.940	16.3949
29.500000	80.936	15.4789
30.000000	80.932	14.5823
30.400000	80.929	13.8757
30.700001	80.927	13.3457
31.100000	80.924	12.6336
31.500000	80.920	11.9197
32.000000	80.911	11.0419
32.500000	80.901	10.1903
33.000000	80.894	9.3535
33.500000	80.888	8.5165
34.000000	80.881	7.6794
34.500000	80.873	6.8497
35.000000	80.864	6.0306
35.500000	80.854	5.2233
36.000000	80.844	4.4317
36.500000	80.835	3.6511
37.000000	80.826	2.8689
37.500000	80.816	2.0818
38.200001	80.796	0.9983
38.700001	80.780	0.2520
39.500000	80.758	-0.9150
40.000000	80.745	-1.6400
40.599998	80.731	-2.5047
41.200001	80.717	-3.3627
41.799999	80.703	-4.2183
42.500000	80.684	-5.2113
43.099998	80.666	-6.0496
43.700001	80.647	-6.8688
44.400002	80.625	-7.8059
45.000000	80.605	-8.6052
45.500000	80.588	-9.2668
46.200001	80.561	-10.1718
46.799999	80.538	-10.9293
47.500000	80.510	-11.8088
48.200001	80.481	-12.6763
48.700001	80.458	-13.2791
49.400002	80.428	-14.1043
50.000000	80.401	-14.8017
50.799999	80.366	-15.7122
51.500000	80.333	-16.4858
52.200001	80.301	-17.2401
53.000000	80.263	-18.0830
53.799999	80.223	-18.9042
54.500000	80.187	-19.5991
55.200001	80.153	-20.2773
56.000000	80.112	-21.0358
57.000000	80.060	-21.9482
58.000000	80.006	-22.8255
59.000000	79.950	-23.6396
60.000000	79.898	-24.3971
60.799999	79.857	-24.9968
61.500000	79.819	-25.5123
62.200001	79.780	-26.0062
63.000000	79.735	-26.5491
64.000000	79.676	-27.2075
65.000000	79.616	-27.8318
66.000000	79.557	-28.4276
67.000000	79.498	-29.0029
68.000000	79.439	-29.5532
69.000000	79.380	-30.0818
70.000000	79.320	-30.5978
71.000000	79.257	-31.0793
72.000000	79.196	-31.5349
73.000000	79.135	-31.9736
74.000000	79.074	-32.3968
75.000000	79.013	-32.8123
76.199997	78.939	-33.2812
77.500000	78.862	-33.7567
78.800003	78.785	-34.2318
80.000000	78.711	-34.6466
81.199997	78.639	-35.0349
82.500000	78.561	-35.4446
83.800003	78.485	-35.8356
85.000000	78.413	-36.1901
86.199997	78.341	-36.5178
87.500000	78.266	-36.8499
88.500000	78.210	-37.1156
90.000000	78.122	-37.4979
91.199997	78.051	-37.7834
92.500000	77.976	-38.0727
93.800003	77.901	-38.3496
95.000000	77.834	-38.5973
96.199997	77.767	-38.8435
97.500000	77.692	-39.0935
98.800003	77.619	-39.3334
100.000000	77.552	-39.5492
101.500000	77.469	-39.8071
103.000000	77.387	-40.0620
104.400002	77.311	-40.2847
106.000000	77.225	-40.5220
107.500000	77.145	-40.7307
109.000000	77.065	-40.9301
110.599998	76.979	-41.1339
112.000000	76.907	-41.3160
113.800003	76.816	-41.5577
115.000000	76.754	-41.7079
117.199997	76.642	-41.9327
118.000000	76.602	-42.0033
120.599998	76.473	-42.2385
122.000000	76.403	-42.3555
124.099998	76.303	-42.5391
125.000000	76.261	-42.6183
126.500000	76.193	-42.7449
128.000000	76.126	-42.8580
131.500000	75.973	-43.0809
132.000000	75.951	-43.1090
134.000000	75.866	-43.2256
136.000000	75.782	-43.3367
138.000000	75.702	-43.4431
140.000000	75.621	-43.5421
143.000000	75.500	-43.6689
145.000000	75.421	-43.7244
147.500000	75.323	-43.8007
150.000000	75.227	-43.8591
152.500000	75.131	-43.9240
155.000000	75.038	-43.9774
157.500000	74.948	-44.0331
160.000000	74.855	-44.0527
162.500000	74.757	-44.0518
165.000000	74.654	-44.0587
167.500000	74.554	-44.0730
170.000000	74.458	-44.0851
172.500000	74.362	-44.0647
175.000000	74.268	-44.0314
177.500000	74.173	-44.0073
180.000000	74.081	-43.9968
182.500000	73.988	-43.9698
185.000000	73.898	-43.9288
187.500000	73.807	-43.8767
190.000000	73.719	-43.8075
192.500000	73.633	-43.7363
195.000000	73.549	-43.6609
197.500000	73.466	-43.5959
200.000000	73.384	-43.5342
203.000000	73.292	-43.4448
206.000000	73.202	-43.3373
209.000000	73.117	-43.2133
212.000000	73.035	-43.1083
214.000000	72.979	-43.0499
218.000000	72.868	-42.9190
220.000000	72.815	-42.8344
224.000000	72.711	-42.6497
227.000000	72.632	-42.5140
230.000000	72.551	-42.3801
233.000000	72.475	-42.2513
236.000000	72.402	-42.1199
240.000000	72.305	-41.9366
243.000000	72.229	-41.7944
247.000000	72.132	-41.6043
250.000000	72.062	-41.4718
254.000000	71.971	-41.2930
258.000000	71.883	-41.0833
262.000000	71.798	-40.8477
265.000000	71.732	-40.6863
269.000000	71.646	-40.4789
272.000000	71.584	-40.3160
276.000000	71.503	-40.0740
280.000000	71.422	-39.8271
285.000000	71.318	-39.5140
290.000000	71.222	-39.1901
295.000000	71.129	-38.8622
300.000000	71.037	-38.5568
304.000000	70.966	-38.2914
307.000000	70.913	-38.0910
311.000000	70.843	-37.8375
315.000000	70.776	-37.5974
320.000000	70.693	-37.2386
325.000000	70.608	-36.8764
330.000000	70.526	-36.5369
335.000000	70.450	-36.1752
340.000000	70.374	-35.8284
345.000000	70.300	-35.5106
350.000000	70.226	-35.1556
355.000000	70.151	-34.7719
360.000000	70.082	-34.4109
365.000000	70.016	-34.0594
370.000000	69.952	-33.6755
375.000000	69.886	-33.3109
382.000000	69.794	-32.8373
387.000000	69.734	-32.4878
395.000000	69.642	-31.8948
400.000000	69.584	-31.5013
406.000000	69.515	-31.0475
412.000000	69.444	-30.6195
418.000000	69.377	-30.1985
425.000000	69.304	-29.6840
431.000000	69.243	-29.2438
437.000000	69.183	-28.8045
444.000000	69.117	-28.2881
450.000000	69.058	-27.8459
455.000000	69.010	-27.4806
462.000000	68.945	-26.9538
468.000000	68.893	-26.4990
475.000000	68.836	-25.9548
482.000000	68.779	-25.4489
487.000000	68.737	-25.0988
494.000000	68.678	-24.5927
500.000000	68.631	-24.1396
508.000000	68.571	-23.5114
515.000000	68.520	-22.9720
522.000000	68.472	-22.4565
530.000000	68.417	-21.8867
538.000000	68.363	-21.3133
545.000000	68.319	-20.7939
552.000000	68.275	-20.2495
560.000000	68.224	-19.6113
570.000000	68.162	-18.8600
580.000000	68.102	-18.1264
590.000000	68.043	-17.3572
600.000000	67.988	-16.5483
608.000000	67.944	-15.8908
615.000000	67.904	-15.3018
622.000000	67.868	-14.6946
630.000000	67.834	-13.9963
640.000000	67.798	-13.1225
650.000000	67.767	-12.2637
660.000000	67.740	-11.4117
670.000000	67.719	-10.5533
680.000000	67.704	-9.7180
690.000000	67.688	-8.9093
700.000000	67.671	-8.1235
710.000000	67.657	-7.3124
720.000000	67.648	-6.4636
730.000000	67.638	-5.6288
740.000000	67.630	-4.8209
750.000000	67.629	-4.0305
762.000000	67.631	-3.0460
775.000000	67.633	-1.9642
788.000000	67.642	-0.8792
800.000000	67.658	0.1140
812.000000	67.675	1.0704
825.000000	67.701	2.0847
838.000000	67.731	3.0646
850.000000	67.763	3.9418
862.000000	67.796	4.8015
875.000000	67.830	5.6732
885.000000	67.860	6.3193
900.000000	67.904	7.3024
912.000000	67.939	8.0865
925.000000	67.984	8.9161
938.000000	68.028	9.7360
950.000000	68.070	10.4896
962.000000	68.117	11.2339
975.000000	68.172	12.0187
988.000000	68.232	12.7635
1000.000000	68.288	13.4214
1015.000000	68.373	14.2114
1030.000000	68.464	15.0049
1044.000000	68.551	15.6814
1060.000000	68.651	16.4134
1075.000000	68.746	17.0601
1090.000000	68.841	17.6619
1106.000000	68.937	18.2654
1120.000000	69.025	18.7664
1138.000000	69.134	19.3732
1150.000000	69.207	19.7514
1172.000000	69.336	20.4084
1180.000000	69.382	20.6415
1206.000000	69.529	21.3585
1220.000000	69.603	21.7229
1241.000000	69.709	22.2776
1250.000000	69.750	22.5083
1265.000000	69.805	22.8701
1280.000000	69.852	23.2036
1315.000000	69.960	24.0459
1320.000000	69.973	24.1623
1340.000000	70.028	24.6223
1360.000000	70.084	25.0992
1380.000000	70.140	25.5725
1400.000000	70.200	26.0310
1430.000000	70.284	26.7258
1450.000000	70.338	27.2112
1475.000000	70.408	27.7732
1500.000000	70.481	28.3384
1525.000000	70.555	28.9211
1550.000000	70.634	29.4682
1575.000000	70.718	29.9866
1600.000000	70.811	30.4974
1625.000000	70.927	30.9943
1650.000000	71.053	31.4663
1675.000000	71.186	31.8853
1700.000000	71.321	32.2612
1725.000000	71.455	32.6083
1750.000000	71.585	32.9431
1775.000000	71.715	33.2311
1800.000000	71.843	33.4800
1825.000000	71.974	33.6909
1850.000000	72.101	33.8724
1875.000000	72.225	34.0309
1900.000000	72.344	34.1766
1925.000000	72.463	34.3059
1950.000000	72.580	34.4083
1975.000000	72.694	34.5029
2000.000000	72.805	34.5874
2030.000000	72.925	34.6918
2060.000000	73.042	34.7786
2090.000000	73.158	34.8630
2120.000000	73.272	34.9395
2140.000000	73.347	34.9902
2180.000000	73.497	35.0737
2200.000000	73.570	35.1130
2240.000000	73.719	35.1851
2270.000000	73.830	35.2204
2300.000000	73.943	35.2538
2330.000000	74.053	35.2828
2360.000000	74.164	35.3020
2400.000000	74.311	35.2992
2430.000000	74.422	35.2934
2470.000000	74.570	35.2566
2500.000000	74.683	35.2042
2540.000000	74.830	35.1307
2580.000000	74.976	35.0279
2620.000000	75.122	34.9028
2650.000000	75.232	34.7814
2690.000000	75.381	34.6062
2720.000000	75.492	34.4512
2760.000000	75.639	34.2181
2800.000000	75.787	33.9633
2850.000000	75.973	33.5865
2900.000000	76.160	33.1587
2950.000000	76.344	32.6887
3000.000000	76.529	32.1548
3040.000000	76.679	31.6758
3070.000000	76.793	31.2975
3110.000000	76.942	30.7690
3150.000000	77.091	30.1870
3200.000000	77.278	29.3838
3250.000000	77.461	28.5225
3300.000000	77.642	27.5809
3350.000000	77.826	26.5330
3400.000000	78.006	25.3949
3450.000000	78.185	24.1617
3500.000000	78.363	22.8120
3550.000000	78.539	21.3206
3600.000000	78.712	19.6870
3650.000000	78.879	17.8879
3700.000000	79.040	15.9146
3750.000000	79.193	13.7502
3820.000000	79.386	10.3673
3870.000000	79.506	7.6918
3950.000000	79.653	2.9160
4000.000000	79.709	-0.3500
4060.000000	79.726	-4.5239
4120.000000	79.683	-8.9185
4180.000000	79.572	-13.4191
4250.000000	79.350	-18.6465
4310.000000	79.081	-22.9528
4370.000000	78.737	-26.9496
4440.000000	78.254	-31.1084
4500.000000	77.784	-34.1576
4550.000000	77.361	-36.3239
4620.000000	76.737	-38.7670
4680.000000	76.187	-40.3510
4750.000000	75.548	-41.6614
4820.000000	74.914	-42.4440
4870.000000	74.468	-42.7081
4940.000000	73.866	-42.7545
5000.000000	73.372	-42.5341
5080.000000	72.732	-41.9080
5150.000000	72.198	-41.1047
5220.000000	71.700	-40.1296
5300.000000	71.166	-38.8359
5380.000000	70.661	-37.3445
5450.000000	70.244	-35.9098
5520.000000	69.852	-34.3736
5600.000000	69.427	-32.3195
5700.000000	68.983	-28.9319
5800.000000	68.870	-26.1827
5900.000000	68.622	-25.5259
6000.000000	68.219	-24.0822
6080.000000	67.923	-22.5170
6150.000000	67.689	-21.0339
6220.000000	67.472	-19.5090
6300.000000	67.263	-17.7439
6400.000000	67.078	-15.5458
6500.000000	66.927	-13.3409
6600.000000	66.796	-11.1348
6700.000000	66.693	-8.9658
6800.000000	66.612	-6.8215
6900.000000	66.549	-4.6801
7000.000000	66.497	-2.5328
7100.000000	66.470	-0.4410
7200.000000	66.471	1.5970
7300.000000	66.493	3.5153
7400.000000	66.525	5.3436
7500.000000	66.567	7.0984
7620.000000	66.633	9.1298
7750.000000	66.735	11.1679
7880.000000	66.859	13.0699
8000.000000	66.962	14.6685
8120.000000	66.998	16.0977
8250.000000	67.036	17.4800
8380.000000	67.089	18.6351
8500.000000	67.146	19.5159
8620.000000	67.208	20.2097
8750.000000	67.277	20.7401
8850.000000	67.330	20.9993
9000.000000	67.411	21.1375
9120.000000	67.472	21.0471
9250.000000	67.523	20.7794
9380.000000	67.560	20.3470
9500.000000	67.578	19.8198
9620.000000	67.585	19.2009
9750.000000	67.580	18.4158
9880.000000	67.558	17.5906
10000.000000	67.536	16.7881
10150.000000	67.535	15.7476
10300.000000	67.531	14.6957
10440.000000	67.515	13.7559
10600.000000	67.495	12.7753
10750.000000	67.494	11.9001
10900.000000	67.524	10.9817
11060.000000	67.589	9.7891
11200.000000	67.670	8.3539
11380.000000	67.766	5.6826
11500.000000	67.781	3.3678
11720.000000	67.637	-1.5429
11800.000000	67.521	-3.4050
12060.000000	66.946	-9.1689
12200.000000	66.539	-11.9647
12410.000000	65.838	-15.7770
12500.000000	65.500	-17.3035
12650.000000	64.874	-19.6486
12800.000000	64.185	-21.7321
13150.000000	62.426	-25.2849
13200.000000	62.164	-25.6464
13400.000000	61.099	-26.7916
13600.000000	60.012	-27.5343
13800.000000	58.888	-27.8690
14000.000000	57.740	-27.7596
14300.000000	56.000	-26.7200
14500.000000	54.856	-25.4991
14750.000000	53.441	-23.4170
15000.000000	52.045	-20.6334
15250.000000	50.716	-17.3119
15500.000000	49.450	-13.3864
15750.000000	48.264	-9.0939
16000.000000	47.195	-4.0062
16250.000000	46.477	1.7196
16500.000000	45.979	7.4314
16750.000000	45.564	13.3171
17000.000000	45.241	18.8406
17250.000000	45.018	24.1757
17500.000000	44.875	29.0605
17750.000000	44.753	33.6022
18000.000000	44.639	37.4994
18250.000000	44.571	40.8075
18500.000000	44.396	42.6246
18750.000000	44.131	43.4791
19000.000000	43.647	43.2996
19250.000000	42.794	42.1558
19500.000000	41.597	41.5222
19750.000000	39.961	41.3789
