* Measurement data measured by REW V5.20.13
* Source: EXCL: Microphone (USB Sound Device        ), MICROPHONE (Master Volume), R, volume: 0.250
* Format: 256k Log Swept Sine, 1 sweep at -6.0 dBFS with no timing reference
* Dated: Sep 17, 2023 8:29:19 AM
* REW Settings:
*  C-weighting compensation: Off
*  Target level: 75.0 dB
* Note: ; 
* Measurement: n.Gold f.Gold Foam R
* Smoothing: None
* Frequency Step: 1/48 octave
* Start Frequency: 1.000 Hz
*
* Freq(Hz)	SPL(dB)	Phase(degrees)
1.000000	70.662	-114.1797
1.015000	70.596	-116.2512
1.030000	70.533	-118.3271
1.044000	70.477	-120.2677
1.060000	70.416	-122.4885
1.075000	70.362	-124.5726
1.090000	70.312	-126.6578
1.106000	70.262	-128.8854
1.120000	70.221	-130.8543
1.138000	70.171	-133.4146
1.150000	70.139	-135.1375
1.172000	70.085	-138.3251
1.180000	70.066	-139.4923
1.206000	70.009	-143.3091
1.220000	69.981	-145.3761
1.241000	69.941	-148.4864
1.250000	69.925	-149.8216
1.265000	69.900	-152.0479
1.280000	69.877	-154.2734
1.315000	69.828	-159.4490
1.320000	69.822	-160.1851
1.340000	69.798	-163.1175
1.360000	69.777	-166.0267
1.380000	69.758	-168.9067
1.400000	69.742	-171.7519
1.430000	69.721	-175.9414
1.450000	69.709	-178.6739
1.475000	69.698	177.9828
1.500000	69.695	174.6749
1.525000	69.702	171.3934
1.550000	69.716	168.1415
1.575000	69.736	164.9224
1.600000	69.761	161.7395
1.625000	69.789	158.5959
1.650000	69.818	155.4951
1.675000	69.848	152.4401
1.700000	69.875	149.4342
1.725000	69.900	146.4808
1.750000	69.920	143.5830
1.775000	69.935	140.7441
1.800000	69.941	137.9675
1.825000	69.939	135.2562
1.850000	69.930	132.6082
1.875000	69.921	130.0121
1.900000	69.912	127.4679
1.925000	69.902	124.9761
1.950000	69.890	122.5373
1.975000	69.874	120.1520
2.000000	69.854	117.8208
2.030000	69.822	115.0955
2.060000	69.780	112.4496
2.090000	69.727	109.8842
2.120000	69.659	107.4001
2.140000	69.606	105.7897
2.180000	69.476	102.6797
2.200000	69.399	101.1801
2.240000	69.227	98.1886
2.270000	69.087	95.9486
2.300000	68.936	93.7431
2.330000	68.772	91.6003
2.360000	68.595	89.5485
2.400000	68.337	87.0029
2.430000	68.126	85.2729
2.470000	67.820	83.2590
2.500000	67.570	82.0045
2.540000	67.208	80.7270
2.580000	66.802	79.9354
2.620000	66.289	79.4525
2.650000	65.843	79.2793
2.690000	65.196	79.3284
2.720000	64.693	79.5942
2.760000	64.026	80.2817
2.800000	63.400	81.3818
2.850000	62.728	83.3901
2.900000	62.250	86.1651
2.950000	62.026	89.8806
3.000000	62.009	95.3247
3.040000	62.113	100.6922
3.070000	62.249	105.0958
3.110000	62.498	111.2118
3.150000	62.808	117.3104
3.200000	63.260	124.4160
3.250000	63.755	130.3567
3.300000	64.264	134.5033
3.350000	64.858	136.9572
3.400000	65.568	138.2493
3.450000	66.354	138.6206
3.500000	67.170	138.3121
3.550000	67.975	137.5649
3.600000	68.725	136.6201
3.650000	69.376	135.7188
3.700000	69.916	134.8545
3.750000	70.397	133.6056
3.820000	70.986	131.3548
3.870000	71.355	129.5201
3.950000	71.876	126.4592
4.000000	72.167	124.6189
4.060000	72.486	122.5805
4.120000	72.754	120.4945
4.180000	72.974	118.3673
4.250000	73.180	115.9064
4.310000	73.323	113.8775
4.370000	73.442	111.9805
4.440000	73.553	109.9548
4.500000	73.608	108.2904
4.550000	73.630	106.9699
4.620000	73.635	105.2603
4.680000	73.624	103.9587
4.750000	73.606	102.6762
4.820000	73.576	101.6710
4.870000	73.535	101.1027
4.940000	73.465	100.4987
5.000000	73.403	100.1439
5.080000	73.341	99.8796
5.150000	73.320	99.8328
5.220000	73.316	100.0757
5.300000	73.329	100.6305
5.380000	73.369	101.3126
5.450000	73.434	101.8761
5.520000	73.533	102.3098
5.600000	73.696	102.8221
5.700000	73.952	103.4380
5.800000	74.234	103.8372
5.900000	74.515	103.8316
6.000000	74.820	103.4505
6.080000	75.070	102.9418
6.150000	75.281	102.3840
6.220000	75.473	101.7504
6.300000	75.670	100.8958
6.400000	75.896	99.5995
6.500000	76.094	98.1888
6.600000	76.260	96.8123
6.700000	76.387	95.4323
6.800000	76.481	94.0280
6.900000	76.553	92.7022
7.000000	76.610	91.5440
7.100000	76.640	90.5103
7.200000	76.654	89.5953
7.300000	76.669	88.8146
7.400000	76.691	88.1971
7.500000	76.711	87.7451
7.620000	76.744	87.3237
7.750000	76.809	86.9137
7.880000	76.901	86.6234
8.000000	77.004	86.3487
8.120000	77.120	85.9493
8.250000	77.267	85.4285
8.380000	77.418	84.8011
8.500000	77.546	84.0929
8.620000	77.673	83.2604
8.750000	77.798	82.2925
8.850000	77.878	81.5349
9.000000	77.978	80.3289
9.120000	78.043	79.3821
9.250000	78.099	78.4331
9.380000	78.138	77.5322
9.500000	78.168	76.7680
9.620000	78.200	76.0916
9.750000	78.230	75.4429
9.880000	78.256	74.8452
10.000000	78.274	74.3367
10.150000	78.290	73.7562
10.300000	78.307	73.1615
10.440000	78.325	72.5946
10.600000	78.345	71.9230
10.750000	78.362	71.2461
10.900000	78.378	70.5388
11.060000	78.387	69.7809
11.200000	78.387	69.1076
11.380000	78.382	68.2707
11.500000	78.373	67.7404
11.720000	78.352	66.8171
11.800000	78.345	66.5011
12.060000	78.321	65.5287
12.200000	78.309	65.0161
12.410000	78.296	64.2582
12.500000	78.297	63.9261
12.650000	78.308	63.3639
12.800000	78.321	62.7976
13.150000	78.339	61.4695
13.200000	78.340	61.2859
13.400000	78.341	60.5679
13.600000	78.342	59.8856
13.800000	78.343	59.2476
14.000000	78.348	58.6258
14.300000	78.365	57.7034
14.500000	78.381	57.0586
14.750000	78.399	56.2150
15.000000	78.414	55.3334
15.250000	78.421	54.4521
15.500000	78.421	53.6080
15.750000	78.420	52.8165
16.000000	78.425	52.0846
16.250000	78.443	51.3769
16.500000	78.471	50.6730
16.750000	78.503	49.9419
17.000000	78.535	49.1849
17.250000	78.563	48.4158
17.500000	78.586	47.6565
17.750000	78.606	46.9344
18.000000	78.626	46.2507
18.250000	78.648	45.6056
18.500000	78.673	44.9763
18.750000	78.701	44.3517
19.000000	78.729	43.7220
19.250000	78.755	43.0904
19.500000	78.779	42.4670
19.750000	78.800	41.8589
20.000000	78.820	41.2724
20.299999	78.846	40.5871
20.600000	78.873	39.9106
20.900000	78.898	39.2322
21.200001	78.920	38.5519
21.400000	78.932	38.1050
21.799999	78.952	37.2369
22.000000	78.962	36.8161
22.400000	78.983	35.9876
22.700001	79.000	35.3582
23.000000	79.015	34.7114
23.299999	79.027	34.0557
23.600000	79.036	33.4051
24.000000	79.045	32.5624
24.299999	79.053	31.9474
24.700001	79.066	31.1305
25.000000	79.077	30.5074
25.400000	79.090	29.6636
25.799999	79.100	28.8264
26.200001	79.109	28.0117
26.500000	79.116	27.4125
26.900000	79.126	26.6182
27.200001	79.134	26.0229
27.600000	79.142	25.2366
28.000000	79.148	24.4693
28.500000	79.157	23.5316
29.000000	79.165	22.5924
29.500000	79.169	21.6520
30.000000	79.168	20.7382
30.400000	79.167	20.0299
30.700001	79.167	19.5022
31.100000	79.167	18.7911
31.500000	79.165	18.0736
32.000000	79.158	17.1885
32.500000	79.151	16.3268
33.000000	79.146	15.4700
33.500000	79.140	14.6049
34.000000	79.132	13.7454
34.500000	79.123	12.9061
35.000000	79.114	12.0825
35.500000	79.105	11.2679
36.000000	79.095	10.4687
36.500000	79.085	9.6871
37.000000	79.075	8.9125
37.500000	79.063	8.1411
38.200001	79.043	7.0906
38.700001	79.029	6.3649
39.500000	79.006	5.2065
40.000000	78.989	4.4870
40.599998	78.968	3.6526
41.200001	78.949	2.8470
41.799999	78.931	2.0438
42.500000	78.908	1.1012
43.099998	78.884	0.3199
43.700001	78.859	-0.4116
44.400002	78.838	-1.2433
45.000000	78.821	-1.9922
45.500000	78.799	-2.6208
46.200001	78.762	-3.4250
46.799999	78.737	-4.0496
47.500000	78.715	-4.8074
48.200001	78.686	-5.5964
48.700001	78.661	-6.1322
49.400002	78.627	-6.8341
50.000000	78.601	-7.4237
50.799999	78.567	-8.2106
51.500000	78.534	-8.8821
52.200001	78.499	-9.5147
53.000000	78.463	-10.2045
53.799999	78.429	-10.9088
54.500000	78.393	-11.5247
55.200001	78.355	-12.1036
56.000000	78.313	-12.7211
57.000000	78.266	-13.4883
58.000000	78.216	-14.2623
59.000000	78.163	-14.9817
60.000000	78.112	-15.6743
60.799999	78.071	-16.2145
61.500000	78.034	-16.6697
62.200001	77.997	-17.1099
63.000000	77.955	-17.6006
64.000000	77.900	-18.2004
65.000000	77.844	-18.7904
66.000000	77.785	-19.3564
67.000000	77.728	-19.8778
68.000000	77.672	-20.4041
69.000000	77.614	-20.8937
70.000000	77.561	-21.3705
71.000000	77.507	-21.8616
72.000000	77.451	-22.3409
73.000000	77.392	-22.8022
74.000000	77.332	-23.2424
75.000000	77.272	-23.6611
76.199997	77.198	-24.1184
77.500000	77.126	-24.5719
78.800003	77.057	-25.0575
80.000000	76.990	-25.5025
81.199997	76.923	-25.9250
82.500000	76.850	-26.3621
83.800003	76.777	-26.7633
85.000000	76.710	-27.1333
86.199997	76.641	-27.4761
87.500000	76.570	-27.8333
88.500000	76.515	-28.1087
90.000000	76.432	-28.5021
91.199997	76.365	-28.7871
92.500000	76.295	-29.0876
93.800003	76.225	-29.4047
95.000000	76.156	-29.6865
96.199997	76.091	-29.9637
97.500000	76.021	-30.2650
98.800003	75.955	-30.5544
100.000000	75.896	-30.8002
101.500000	75.824	-31.0720
103.000000	75.751	-31.3095
104.400002	75.682	-31.5176
106.000000	75.599	-31.7611
107.500000	75.525	-32.0076
109.000000	75.449	-32.2527
110.599998	75.372	-32.5037
112.000000	75.306	-32.6897
113.800003	75.223	-32.9079
115.000000	75.165	-33.0613
117.199997	75.058	-33.3123
118.000000	75.021	-33.3936
120.599998	74.903	-33.6768
122.000000	74.842	-33.8055
124.099998	74.748	-33.9838
125.000000	74.708	-34.0649
126.500000	74.645	-34.1805
128.000000	74.584	-34.3054
131.500000	74.445	-34.5311
132.000000	74.426	-34.5688
134.000000	74.348	-34.7018
136.000000	74.269	-34.8184
138.000000	74.199	-34.9491
140.000000	74.125	-35.0302
143.000000	74.013	-35.1299
145.000000	73.941	-35.1947
147.500000	73.852	-35.2972
150.000000	73.766	-35.3664
152.500000	73.682	-35.4058
155.000000	73.599	-35.4484
157.500000	73.514	-35.4894
160.000000	73.434	-35.5146
162.500000	73.340	-35.5420
165.000000	73.248	-35.5476
167.500000	73.157	-35.5418
170.000000	73.068	-35.5412
172.500000	72.979	-35.5280
175.000000	72.893	-35.4774
177.500000	72.808	-35.4564
180.000000	72.720	-35.4218
182.500000	72.635	-35.3635
185.000000	72.554	-35.3436
187.500000	72.476	-35.2483
190.000000	72.398	-35.2194
192.500000	72.319	-35.1445
195.000000	72.244	-35.0857
197.500000	72.168	-35.0004
200.000000	72.093	-34.8981
203.000000	72.015	-34.8015
206.000000	71.931	-34.6802
209.000000	71.851	-34.5540
212.000000	71.779	-34.4428
214.000000	71.728	-34.3657
218.000000	71.632	-34.1973
220.000000	71.584	-34.0892
224.000000	71.488	-33.9065
227.000000	71.422	-33.7413
230.000000	71.358	-33.6013
233.000000	71.292	-33.4425
236.000000	71.220	-33.2762
240.000000	71.135	-33.0835
243.000000	71.074	-32.9140
247.000000	70.990	-32.6587
250.000000	70.930	-32.4965
254.000000	70.851	-32.2645
258.000000	70.771	-32.0405
262.000000	70.703	-31.8146
265.000000	70.644	-31.6213
269.000000	70.575	-31.4117
272.000000	70.524	-31.2190
276.000000	70.456	-30.9282
280.000000	70.388	-30.6456
285.000000	70.304	-30.3506
290.000000	70.224	-29.9910
295.000000	70.147	-29.6289
300.000000	70.069	-29.3168
304.000000	70.018	-29.0371
307.000000	69.975	-28.8046
311.000000	69.920	-28.5675
315.000000	69.864	-28.2777
320.000000	69.797	-27.9272
325.000000	69.731	-27.5817
330.000000	69.670	-27.2437
335.000000	69.604	-26.8793
340.000000	69.546	-26.4925
345.000000	69.484	-26.1541
350.000000	69.431	-25.7992
355.000000	69.375	-25.4327
360.000000	69.316	-25.0465
365.000000	69.268	-24.7207
370.000000	69.221	-24.3337
375.000000	69.166	-23.9937
382.000000	69.109	-23.4695
387.000000	69.059	-23.1169
395.000000	68.984	-22.5231
400.000000	68.947	-22.1505
406.000000	68.894	-21.7426
412.000000	68.844	-21.3256
418.000000	68.797	-20.8760
425.000000	68.748	-20.3599
431.000000	68.703	-19.9028
437.000000	68.664	-19.4781
444.000000	68.622	-18.9719
450.000000	68.585	-18.5214
455.000000	68.550	-18.1611
462.000000	68.514	-17.7046
468.000000	68.481	-17.2709
475.000000	68.456	-16.7983
482.000000	68.416	-16.2682
487.000000	68.397	-15.9666
494.000000	68.359	-15.4620
500.000000	68.332	-15.0287
508.000000	68.314	-14.4526
515.000000	68.282	-13.9893
522.000000	68.265	-13.4174
530.000000	68.245	-12.8951
538.000000	68.195	-12.0284
545.000000	68.246	-11.0045
552.000000	68.342	-10.6680
560.000000	68.353	-10.7764
570.000000	68.244	-10.5708
580.000000	68.099	-9.7427
590.000000	67.955	-8.5693
600.000000	67.814	-7.5771
608.000000	67.723	-7.1304
615.000000	67.694	-6.9526
622.000000	67.702	-6.6472
630.000000	67.726	-6.1057
640.000000	67.720	-5.3837
650.000000	67.729	-4.7715
660.000000	67.725	-3.9261
670.000000	67.729	-3.3651
680.000000	67.713	-2.5909
690.000000	67.735	-1.9407
700.000000	67.724	-1.2207
710.000000	67.723	-0.5336
720.000000	67.734	0.1200
730.000000	67.744	0.8782
740.000000	67.748	1.5189
750.000000	67.750	2.2467
762.000000	67.771	3.0403
775.000000	67.783	3.9518
788.000000	67.795	4.7744
800.000000	67.834	5.6409
812.000000	67.840	6.3888
825.000000	67.861	7.3203
838.000000	67.881	8.0879
850.000000	67.908	8.9745
862.000000	67.929	9.7434
875.000000	67.969	10.5731
885.000000	67.997	11.2464
900.000000	68.053	12.1404
912.000000	68.079	12.8368
925.000000	68.132	13.6420
938.000000	68.182	14.4717
950.000000	68.245	14.9873
962.000000	68.290	15.6987
975.000000	68.360	16.4167
988.000000	68.425	17.0617
1000.000000	68.477	17.6464
1015.000000	68.582	18.3108
1030.000000	68.687	18.9998
1044.000000	68.774	19.5580
1060.000000	68.886	20.1194
1075.000000	68.988	20.6976
1090.000000	69.083	21.1868
1106.000000	69.189	21.6990
1120.000000	69.274	22.0870
1138.000000	69.391	22.5811
1150.000000	69.463	22.8945
1172.000000	69.607	23.4111
1180.000000	69.646	23.5723
1206.000000	69.806	24.1201
1220.000000	69.895	24.3840
1241.000000	70.011	24.7839
1250.000000	70.058	24.9238
1265.000000	70.108	25.1592
1280.000000	70.162	25.3735
1315.000000	70.289	25.8690
1320.000000	70.304	25.9158
1340.000000	70.370	26.1692
1360.000000	70.429	26.4216
1380.000000	70.497	26.6877
1400.000000	70.556	26.8318
1430.000000	70.648	27.1361
1450.000000	70.710	27.2906
1475.000000	70.782	27.4221
1500.000000	70.863	27.5258
1525.000000	70.939	27.7988
1550.000000	70.976	27.2372
1575.000000	70.928	27.4012
1600.000000	70.870	27.6414
1625.000000	70.734	27.2707
1650.000000	70.946	24.8728
1675.000000	71.492	29.2912
1700.000000	70.775	29.4888
1725.000000	71.135	27.2102
1750.000000	71.379	29.7621
1775.000000	71.342	29.7449
1800.000000	71.493	30.2944
1825.000000	71.579	30.4528
1850.000000	71.673	30.6799
1875.000000	71.767	30.9584
1900.000000	71.869	31.1412
1925.000000	71.961	31.2974
1950.000000	72.054	31.4700
1975.000000	72.148	31.5905
2000.000000	72.211	31.7949
2030.000000	72.337	31.8331
2060.000000	72.429	31.9870
2090.000000	72.526	32.0529
2120.000000	72.624	32.1436
2140.000000	72.691	32.1834
2180.000000	72.823	32.2959
2200.000000	72.883	32.2855
2240.000000	73.016	32.2737
2270.000000	73.110	32.3029
2300.000000	73.213	32.2334
2330.000000	73.310	32.1744
2360.000000	73.413	32.1080
2400.000000	73.531	31.9178
2430.000000	73.629	31.7634
2470.000000	73.754	31.4990
2500.000000	73.844	31.2587
2540.000000	73.958	30.9265
2580.000000	74.076	30.5284
2620.000000	74.182	30.0530
2650.000000	74.262	29.6661
2690.000000	74.349	29.1259
2720.000000	74.414	28.6905
2760.000000	74.488	28.0586
2800.000000	74.543	27.4414
2850.000000	74.583	26.7122
2900.000000	74.611	26.1249
2950.000000	74.617	25.7715
3000.000000	74.651	25.8201
3040.000000	74.634	26.1594
3070.000000	74.687	26.7354
3110.000000	74.888	27.2488
3150.000000	75.124	28.1849
3200.000000	75.352	30.6308
3250.000000	75.461	24.0920
3300.000000	74.979	25.7241
3350.000000	75.773	22.4630
3400.000000	76.527	22.9591
3450.000000	77.041	19.0161
3500.000000	77.320	14.4698
3550.000000	77.360	10.4984
3600.000000	77.283	6.6017
3650.000000	77.117	2.8826
3700.000000	76.888	-0.5336
3750.000000	76.600	-3.5654
3820.000000	76.137	-7.1083
3870.000000	75.776	-9.2285
3950.000000	75.167	-11.7051
4000.000000	74.777	-12.8759
4060.000000	74.333	-13.6662
4120.000000	73.904	-14.1287
4180.000000	73.504	-14.3414
4250.000000	73.097	-14.3176
4310.000000	72.789	-14.1857
4370.000000	72.523	-14.0216
4440.000000	72.256	-13.9553
4500.000000	72.072	-14.1704
4550.000000	71.948	-14.4587
4620.000000	71.805	-15.3828
4680.000000	71.677	-16.7316
4750.000000	71.489	-18.9594
4820.000000	71.184	-22.0048
4870.000000	70.856	-24.3593
4940.000000	70.198	-27.4372
5000.000000	69.438	-29.2090
5080.000000	68.306	-29.7616
5150.000000	67.303	-28.3212
5220.000000	66.372	-25.6396
5300.000000	65.458	-21.4260
5380.000000	64.664	-16.8372
5450.000000	64.124	-12.3468
5520.000000	63.669	-7.8999
5600.000000	63.232	-2.8108
5700.000000	62.884	3.5529
5800.000000	62.616	9.1206
5900.000000	62.434	14.5289
6000.000000	62.375	19.9684
6080.000000	62.328	24.3118
6150.000000	62.349	27.7049
6220.000000	62.421	30.9636
6300.000000	62.517	34.6613
6400.000000	62.779	39.1758
6500.000000	63.150	43.1650
6600.000000	63.494	47.1065
6700.000000	63.956	50.5429
6800.000000	64.458	54.0797
6900.000000	65.008	57.1964
7000.000000	65.636	60.0195
7100.000000	66.320	62.4035
7200.000000	67.076	64.2734
7300.000000	67.939	65.6344
7400.000000	68.817	66.3176
7500.000000	69.784	66.2211
7620.000000	71.004	64.6832
7750.000000	72.351	61.1409
7880.000000	73.658	55.3167
8000.000000	74.698	47.7988
8120.000000	75.430	38.6759
8250.000000	75.879	27.5159
8380.000000	76.004	16.0057
8500.000000	75.911	5.5530
8620.000000	75.660	-4.6764
8750.000000	75.213	-15.6637
8850.000000	74.748	-24.0687
9000.000000	73.774	-36.2013
9120.000000	72.792	-45.1740
9250.000000	71.523	-53.5591
9380.000000	70.150	-60.4320
9500.000000	68.845	-65.3293
9620.000000	67.543	-69.2953
9750.000000	66.167	-72.3450
9880.000000	64.925	-74.9299
10000.000000	63.764	-76.7094
10150.000000	62.601	-78.5408
10300.000000	61.438	-80.3716
10440.000000	60.484	-82.1189
10600.000000	59.374	-84.6353
10750.000000	58.345	-88.0125
10900.000000	57.234	-91.7615
11060.000000	55.826	-96.7819
11200.000000	54.592	-102.1890
11380.000000	52.402	-111.8376
11500.000000	50.329	-119.8588
11720.000000	44.361	-143.4471
11800.000000	41.426	-157.9196
12060.000000	40.285	82.9724
12200.000000	44.498	62.0629
12410.000000	48.035	47.3541
12500.000000	48.964	41.8527
12650.000000	50.182	37.9556
12800.000000	51.102	34.3040
13150.000000	52.648	28.1269
13200.000000	52.929	27.2271
13400.000000	53.660	23.0198
13600.000000	52.720	21.2858
13800.000000	54.275	28.3913
14000.000000	55.336	26.9684
14300.000000	56.808	21.3521
14500.000000	57.690	15.4982
14750.000000	58.520	2.9222
15000.000000	58.180	-12.0398
15250.000000	56.797	-23.4553
15500.000000	54.879	-28.2629
15750.000000	53.176	-29.1024
16000.000000	51.649	-26.4674
16250.000000	51.012	-21.8657
16500.000000	50.707	-17.0502
16750.000000	50.638	-12.5751
17000.000000	50.644	-9.8992
17250.000000	50.851	-5.8980
17500.000000	51.389	-6.3912
17750.000000	51.563	-9.5876
18000.000000	50.972	-15.7472
18250.000000	49.694	-18.4265
18500.000000	48.813	-18.7368
18750.000000	47.172	-18.5228
19000.000000	45.431	-18.7552
19250.000000	44.350	-20.3171
19500.000000	42.250	-32.6881
19750.000000	38.093	-56.0948
