* Measurement data measured by REW V5.20.13
* Source: C:\Users\marcu\OneDrive\Desktop\Fix\ n.Purple f.Purple Foam R.txt
* Format: Comma/Tab/Space delimited data
* Dated: Jul 15, 2023 11:04:32 AM
* REW Settings:
*  C-weighting compensation: Off
*  Target level: 75.0 dB
* Note: ; Measurement imported from C:\Users\marcu\OneDrive\Desktop\Fix\ n.Purple f.Purple Foam R.txt Format: Comma/Tab/Space delimited data 54613 values loaded, 0 Hz to 20,000 Hz 
* Measurement:  n.Purple f.Purple Foam R
* Smoothing: None
* Frequency Step: 1/48 octave
* Start Frequency: 1.000 Hz
*
* Freq(Hz)	SPL(dB)	Phase(degrees)
1.000000	61.700	-63.4479
1.015000	61.521	-64.4826
1.030000	61.335	-65.5298
1.044000	61.156	-66.5191
1.060000	60.944	-67.6650
1.075000	60.738	-68.7551
1.090000	60.524	-69.8613
1.106000	60.287	-71.1158
1.120000	60.076	-72.5745
1.138000	59.798	-74.9609
1.150000	59.610	-76.8251
1.172000	59.256	-80.6978
1.180000	59.124	-82.2228
1.206000	58.687	-87.4657
1.220000	58.445	-90.3923
1.241000	58.074	-94.7879
1.250000	57.911	-96.6395
1.265000	57.635	-99.6353
1.280000	57.352	-102.4677
1.315000	56.670	-108.1107
1.320000	56.569	-108.7745
1.340000	56.160	-110.9873
1.360000	55.739	-112.3872
1.380000	55.305	-112.8352
1.400000	54.859	-112.1920
1.430000	54.163	-108.8766
1.450000	53.682	-104.8962
1.475000	53.052	-97.5721
1.500000	52.323	-86.6645
1.525000	51.497	-72.4580
1.550000	50.597	-55.5277
1.575000	49.644	-36.4482
1.600000	48.662	-15.7947
1.625000	47.673	5.8579
1.650000	46.698	27.9348
1.675000	45.760	49.8611
1.700000	44.882	71.0619
1.725000	44.085	90.9621
1.750000	43.393	108.9868
1.775000	42.826	124.5613
1.800000	42.409	137.1105
1.825000	42.162	146.0596
1.850000	42.109	151.2071
1.875000	42.250	153.3473
1.900000	42.561	152.8658
1.925000	43.015	150.1193
1.950000	43.588	145.4644
1.975000	44.254	139.2579
2.000000	44.987	131.8563
2.030000	45.920	121.8991
2.060000	46.870	111.3510
2.090000	47.791	100.8282
2.120000	48.641	90.9471
2.140000	49.145	85.0205
2.180000	49.948	75.5750
2.200000	50.221	72.4118
2.240000	50.637	67.5351
2.270000	50.886	64.4574
2.300000	51.081	61.8123
2.330000	51.225	59.5421
2.360000	51.320	57.5888
2.400000	51.373	55.3774
2.430000	51.359	53.9386
2.470000	51.272	52.2033
2.500000	51.158	50.9641
2.540000	50.945	49.2848
2.580000	50.653	47.3841
2.620000	50.197	44.7434
2.650000	49.758	42.4179
2.690000	49.074	39.1866
2.720000	48.512	36.8898
2.760000	47.730	34.3256
2.800000	46.950	32.7073
2.850000	46.044	32.6403
2.900000	45.290	35.4952
2.950000	44.744	42.2376
3.000000	44.236	54.2955
3.040000	43.850	66.9489
3.070000	43.588	77.6030
3.110000	43.298	92.6398
3.150000	43.097	107.8026
3.200000	43.011	125.5636
3.250000	43.153	140.3609
3.300000	43.575	149.8327
3.350000	44.397	149.9060
3.400000	45.597	150.0778
3.450000	47.045	150.3100
3.500000	48.614	150.5643
3.550000	50.177	150.8026
3.600000	51.606	150.9867
3.650000	52.773	151.0784
3.700000	53.632	150.4049
3.750000	54.329	149.1404
3.820000	55.098	146.8618
3.870000	55.535	145.0251
3.950000	56.118	142.0374
4.000000	56.451	140.3159
4.060000	56.847	138.5153
4.120000	57.173	136.7491
4.180000	57.432	135.0113
4.250000	57.667	133.0810
4.310000	57.828	131.5623
4.370000	57.968	130.2174
4.440000	58.108	128.8915
4.500000	58.180	127.8990
4.550000	58.213	127.1790
4.620000	58.234	126.3520
4.680000	58.243	125.8276
4.750000	58.263	125.4522
4.820000	58.287	125.3843
4.870000	58.292	125.5364
4.940000	58.293	125.9613
5.000000	58.302	126.4604
5.080000	58.344	127.2156
5.150000	58.428	127.8836
5.220000	58.549	128.7232
5.300000	58.722	129.8381
5.380000	58.925	130.9395
5.450000	59.121	131.7452
5.520000	59.333	132.2904
5.600000	59.611	132.7144
5.700000	59.996	132.9938
5.800000	60.382	132.9688
5.900000	60.736	132.6013
6.000000	61.078	131.8276
6.080000	61.340	130.9952
6.150000	61.555	130.1782
6.220000	61.750	129.3334
6.300000	61.948	128.3026
6.400000	62.163	126.8500
6.500000	62.348	125.3401
6.600000	62.508	123.9066
6.700000	62.637	122.5317
6.800000	62.738	121.1850
6.900000	62.826	119.9269
7.000000	62.913	118.8133
7.100000	62.986	117.8361
7.200000	63.055	116.9638
7.300000	63.133	116.1689
7.400000	63.228	115.4562
7.500000	63.331	114.8512
7.620000	63.470	114.1669
7.750000	63.647	113.3615
7.880000	63.853	112.5431
8.000000	64.058	111.7241
8.120000	64.266	110.7768
8.250000	64.504	109.6235
8.380000	64.742	108.3750
8.500000	64.950	107.1489
8.620000	65.152	105.8330
8.750000	65.360	104.3813
8.850000	65.510	103.2848
9.000000	65.719	101.6283
9.120000	65.876	100.3451
9.250000	66.038	99.0401
9.380000	66.191	97.8014
9.500000	66.329	96.7231
9.620000	66.470	95.7178
9.750000	66.621	94.7051
9.880000	66.767	93.7417
10.000000	66.892	92.8909
10.150000	67.041	91.8817
10.300000	67.185	90.8903
10.440000	67.316	89.9803
10.600000	67.461	88.9576
10.750000	67.594	88.0060
10.900000	67.722	87.0679
11.060000	67.851	86.0977
11.200000	67.958	85.2721
11.380000	68.087	84.2537
11.500000	68.169	83.6064
11.720000	68.313	82.4725
11.800000	68.363	82.0758
12.060000	68.520	80.8373
12.200000	68.600	80.1866
12.410000	68.714	79.2314
12.500000	68.767	78.8253
12.650000	68.860	78.1526
12.800000	68.952	77.4895
13.150000	69.146	75.9866
13.200000	69.171	75.7787
13.400000	69.269	74.9667
13.600000	69.362	74.1784
13.800000	69.451	73.4145
14.000000	69.537	72.6541
14.300000	69.662	71.5084
14.500000	69.742	70.7230
14.750000	69.836	69.7209
15.000000	69.920	68.7004
15.250000	69.997	67.6842
15.500000	70.067	66.6883
15.750000	70.133	65.7190
16.000000	70.201	64.7763
16.250000	70.275	63.8447
16.500000	70.353	62.9167
16.750000	70.432	61.9817
17.000000	70.507	61.0464
17.250000	70.580	60.1195
17.500000	70.650	59.2138
17.750000	70.717	58.3423
18.000000	70.783	57.5057
18.250000	70.849	56.7040
18.500000	70.915	55.9273
18.750000	70.981	55.1714
19.000000	71.045	54.4324
19.250000	71.107	53.7122
19.500000	71.166	53.0147
19.750000	71.221	52.3424
20.000000	71.275	51.6968
20.299999	71.338	50.9500
20.600000	71.398	50.2250
20.900000	71.456	49.5123
21.200001	71.507	48.8076
21.400000	71.538	48.3446
21.799999	71.592	47.4423
22.000000	71.616	47.0055
22.400000	71.659	46.1613
22.700001	71.690	45.5458
23.000000	71.722	44.9341
23.299999	71.752	44.3177
23.600000	71.780	43.6934
24.000000	71.817	42.8508
24.299999	71.841	42.2188
24.700001	71.872	41.3878
25.000000	71.894	40.7790
25.400000	71.925	39.9869
25.799999	71.957	39.2112
26.200001	71.990	38.4508
26.500000	72.014	37.8981
26.900000	72.045	37.2005
27.200001	72.068	36.7130
27.600000	72.105	36.0998
28.000000	72.146	35.4913
28.500000	72.199	34.6815
29.000000	72.236	33.8338
29.500000	72.251	33.0499
30.000000	72.257	32.4078
30.400000	72.268	31.9667
30.700001	72.281	31.6382
31.100000	72.300	31.1649
31.500000	72.315	30.6522
32.000000	72.322	30.0087
32.500000	72.324	29.4120
33.000000	72.331	28.8416
33.500000	72.340	28.2469
34.000000	72.346	27.6287
34.500000	72.346	27.0431
35.000000	72.347	26.5228
35.500000	72.359	26.0296
36.000000	72.379	25.4979
36.500000	72.396	24.9128
37.000000	72.403	24.3258
37.500000	72.404	23.7885
38.200001	72.409	23.0976
38.700001	72.414	22.5918
39.500000	72.405	21.7993
40.000000	72.396	21.3846
40.599998	72.394	20.9506
41.200001	72.402	20.4924
41.799999	72.410	19.9862
42.500000	72.412	19.3965
43.099998	72.412	18.9163
43.700001	72.411	18.4472
44.400002	72.408	17.9195
45.000000	72.405	17.4890
45.500000	72.404	17.1377
46.200001	72.401	16.6497
46.799999	72.399	16.2270
47.500000	72.395	15.7179
48.200001	72.385	15.2158
48.700001	72.377	14.8814
49.400002	72.368	14.4381
50.000000	72.363	14.0579
50.799999	72.356	13.5557
51.500000	72.350	13.1349
52.200001	72.344	12.7212
53.000000	72.335	12.2575
53.799999	72.324	11.8188
54.500000	72.315	11.4452
55.200001	72.305	11.0745
56.000000	72.294	10.6602
57.000000	72.284	10.1162
58.000000	72.264	9.5487
59.000000	72.242	9.0926
60.000000	72.237	8.6493
60.799999	72.231	8.2471
61.500000	72.220	7.9277
62.200001	72.213	7.6329
63.000000	72.206	7.2753
64.000000	72.188	6.8327
65.000000	72.169	6.4229
66.000000	72.150	6.0241
67.000000	72.133	5.6367
68.000000	72.116	5.2411
69.000000	72.097	4.8618
70.000000	72.078	4.4826
71.000000	72.051	4.1258
72.000000	72.029	3.8098
73.000000	72.005	3.4602
74.000000	71.978	3.1648
75.000000	71.966	2.8481
76.199997	71.939	2.3680
77.500000	71.909	1.9540
78.800003	71.879	1.5433
80.000000	71.859	1.2096
81.199997	71.837	0.8251
82.500000	71.809	0.4672
83.800003	71.784	0.0932
85.000000	71.756	-0.2449
86.199997	71.732	-0.5721
87.500000	71.701	-0.9317
88.500000	71.679	-1.1456
90.000000	71.655	-1.5061
91.199997	71.630	-1.7968
92.500000	71.603	-2.0919
93.800003	71.575	-2.3915
95.000000	71.547	-2.6582
96.199997	71.522	-2.9211
97.500000	71.493	-3.1971
98.800003	71.468	-3.4675
100.000000	71.443	-3.7113
101.500000	71.412	-4.0145
103.000000	71.377	-4.2969
104.400002	71.347	-4.5645
106.000000	71.310	-4.8715
107.500000	71.279	-5.1438
109.000000	71.247	-5.4099
110.599998	71.214	-5.6747
112.000000	71.185	-5.9063
113.800003	71.145	-6.1936
115.000000	71.118	-6.3666
117.199997	71.070	-6.6837
118.000000	71.052	-6.7984
120.599998	70.994	-7.1746
122.000000	70.966	-7.3620
124.099998	70.920	-7.6372
125.000000	70.902	-7.7442
126.500000	70.874	-7.9194
128.000000	70.850	-8.1125
131.500000	70.791	-8.5561
132.000000	70.782	-8.6124
134.000000	70.750	-8.8278
136.000000	70.713	-9.0352
138.000000	70.674	-9.2226
140.000000	70.640	-9.4100
143.000000	70.591	-9.7141
145.000000	70.558	-9.8973
147.500000	70.513	-10.1045
150.000000	70.469	-10.2876
152.500000	70.429	-10.4848
155.000000	70.389	-10.6755
157.500000	70.346	-10.8529
160.000000	70.300	-11.0100
162.500000	70.247	-11.1686
165.000000	70.194	-11.3264
167.500000	70.143	-11.4749
170.000000	70.089	-11.6162
172.500000	70.032	-11.7415
175.000000	69.977	-11.8388
177.500000	69.928	-11.9479
180.000000	69.877	-12.0460
182.500000	69.822	-12.1453
185.000000	69.768	-12.2414
187.500000	69.716	-12.3336
190.000000	69.667	-12.4107
192.500000	69.618	-12.4712
195.000000	69.568	-12.5234
197.500000	69.520	-12.5857
200.000000	69.472	-12.6561
203.000000	69.419	-12.7300
206.000000	69.370	-12.7808
209.000000	69.320	-12.8067
212.000000	69.270	-12.8249
214.000000	69.236	-12.8577
218.000000	69.171	-12.9236
220.000000	69.141	-12.9368
224.000000	69.077	-12.9412
227.000000	69.027	-12.9485
230.000000	68.979	-12.9357
233.000000	68.933	-12.9406
236.000000	68.886	-12.9429
240.000000	68.828	-12.9091
243.000000	68.782	-12.8738
247.000000	68.719	-12.8436
250.000000	68.675	-12.8345
254.000000	68.620	-12.7784
258.000000	68.569	-12.7123
262.000000	68.517	-12.6453
265.000000	68.474	-12.6067
269.000000	68.420	-12.5534
272.000000	68.382	-12.4893
276.000000	68.330	-12.3853
280.000000	68.280	-12.2938
285.000000	68.220	-12.1752
290.000000	68.158	-12.0419
295.000000	68.095	-11.8993
300.000000	68.037	-11.7620
304.000000	67.994	-11.6519
307.000000	67.960	-11.5613
311.000000	67.914	-11.4143
315.000000	67.869	-11.2642
320.000000	67.809	-11.0886
325.000000	67.754	-10.9127
330.000000	67.704	-10.7243
335.000000	67.651	-10.5211
340.000000	67.596	-10.3242
345.000000	67.544	-10.1245
350.000000	67.495	-9.8980
355.000000	67.449	-9.6864
360.000000	67.405	-9.4729
365.000000	67.358	-9.2624
370.000000	67.310	-9.0426
375.000000	67.269	-8.8080
382.000000	67.211	-8.4845
387.000000	67.167	-8.2628
395.000000	67.097	-7.8736
400.000000	67.055	-7.6295
406.000000	67.007	-7.3351
412.000000	66.961	-7.0422
418.000000	66.915	-6.7549
425.000000	66.861	-6.4084
431.000000	66.814	-6.1055
437.000000	66.769	-5.8018
444.000000	66.721	-5.3974
450.000000	66.679	-5.0808
455.000000	66.642	-4.8203
462.000000	66.593	-4.4440
468.000000	66.552	-4.1046
475.000000	66.504	-3.7196
482.000000	66.459	-3.3160
487.000000	66.426	-3.0141
494.000000	66.379	-2.5865
500.000000	66.343	-2.2389
508.000000	66.296	-1.7625
515.000000	66.257	-1.3186
522.000000	66.221	-0.8758
530.000000	66.177	-0.3996
538.000000	66.137	0.1069
545.000000	66.103	0.5312
552.000000	66.068	0.9778
560.000000	66.030	1.5217
570.000000	65.981	2.2007
580.000000	65.932	2.8620
590.000000	65.888	3.5382
600.000000	65.840	4.2581
608.000000	65.804	4.8844
615.000000	65.773	5.4348
622.000000	65.745	5.9744
630.000000	65.718	6.5904
640.000000	65.691	7.4202
650.000000	65.673	8.2520
660.000000	65.659	9.0521
670.000000	65.646	9.8538
680.000000	65.634	10.6318
690.000000	65.624	11.4395
700.000000	65.620	12.2395
710.000000	65.615	13.0436
720.000000	65.610	13.8240
730.000000	65.612	14.6282
740.000000	65.615	15.4493
750.000000	65.621	16.2891
762.000000	65.629	17.2887
775.000000	65.645	18.3444
788.000000	65.670	19.4497
800.000000	65.695	20.4733
812.000000	65.719	21.4612
825.000000	65.753	22.4885
838.000000	65.791	23.4871
850.000000	65.830	24.4310
862.000000	65.870	25.3636
875.000000	65.918	26.3290
885.000000	65.957	27.0528
900.000000	66.018	28.1143
912.000000	66.069	28.9837
925.000000	66.129	29.9278
938.000000	66.191	30.8503
950.000000	66.251	31.6908
962.000000	66.318	32.5207
975.000000	66.394	33.3790
988.000000	66.474	34.2171
1000.000000	66.552	34.9836
1015.000000	66.667	35.9064
1030.000000	66.788	36.7715
1044.000000	66.902	37.5456
1060.000000	67.037	38.4078
1075.000000	67.163	39.1632
1090.000000	67.291	39.8618
1106.000000	67.425	40.5768
1120.000000	67.543	41.1848
1138.000000	67.691	41.9428
1150.000000	67.789	42.4026
1172.000000	67.966	43.2087
1180.000000	68.031	43.5045
1206.000000	68.236	44.4095
1220.000000	68.343	44.8666
1241.000000	68.501	45.5668
1250.000000	68.565	45.8698
1265.000000	68.657	46.3531
1280.000000	68.742	46.8193
1315.000000	68.943	47.9151
1320.000000	68.971	48.0766
1340.000000	69.085	48.6995
1360.000000	69.201	49.3221
1380.000000	69.320	49.9617
1400.000000	69.442	50.5850
1430.000000	69.627	51.5001
1450.000000	69.754	52.1316
1475.000000	69.916	52.8937
1500.000000	70.091	53.6328
1525.000000	70.274	54.3423
1550.000000	70.463	55.0369
1575.000000	70.659	55.6807
1600.000000	70.869	56.2949
1625.000000	71.114	56.8562
1650.000000	71.373	57.3335
1675.000000	71.638	57.7406
1700.000000	71.906	58.0881
1725.000000	72.182	58.3323
1750.000000	72.463	58.4682
1775.000000	72.746	58.5052
1800.000000	73.027	58.4565
1825.000000	73.306	58.2845
1850.000000	73.585	58.0036
1875.000000	73.860	57.6148
1900.000000	74.131	57.1166
1925.000000	74.395	56.4963
1950.000000	74.650	55.7753
1975.000000	74.895	54.9594
2000.000000	75.130	54.0345
2030.000000	75.395	52.7667
2060.000000	75.644	51.3639
2090.000000	75.871	49.8409
2120.000000	76.078	48.1883
2140.000000	76.205	47.0175
2180.000000	76.431	44.5346
2200.000000	76.528	43.2324
2240.000000	76.687	40.5190
2270.000000	76.778	38.4358
2300.000000	76.840	36.3264
2330.000000	76.881	34.1997
2360.000000	76.901	32.0849
2400.000000	76.892	29.3219
2430.000000	76.861	27.3365
2470.000000	76.790	24.8229
2500.000000	76.719	23.0542
2540.000000	76.608	20.8783
2580.000000	76.479	18.9035
2620.000000	76.335	17.1692
2650.000000	76.221	16.0229
2690.000000	76.066	14.6679
2720.000000	75.948	13.7866
2760.000000	75.792	12.7871
2800.000000	75.639	11.9722
2850.000000	75.455	11.1734
2900.000000	75.288	10.6143
2950.000000	75.147	10.2218
3000.000000	75.024	9.9831
3040.000000	74.935	9.9219
3070.000000	74.877	9.9199
3110.000000	74.816	9.9533
3150.000000	74.773	10.0325
3200.000000	74.739	10.1900
3250.000000	74.725	10.3933
3300.000000	74.734	10.6073
3350.000000	74.767	10.8212
3400.000000	74.829	11.0079
3450.000000	74.919	11.1344
3500.000000	75.029	11.2117
3550.000000	75.160	11.1912
3600.000000	75.316	11.0533
3650.000000	75.496	10.7586
3700.000000	75.698	10.2801
3750.000000	75.916	9.5874
3820.000000	76.244	8.1854
3870.000000	76.490	6.7912
3950.000000	76.885	3.7897
4000.000000	77.122	1.3474
4060.000000	77.369	-2.2007
4120.000000	77.555	-6.4295
4180.000000	77.657	-11.2992
4250.000000	77.640	-17.5741
4310.000000	77.490	-23.2038
4370.000000	77.205	-28.7376
4440.000000	76.708	-34.6789
4500.000000	76.161	-39.0893
4550.000000	75.644	-42.1921
4620.000000	74.862	-45.6729
4680.000000	74.161	-47.8631
4750.000000	73.333	-49.6092
4820.000000	72.512	-50.5854
4870.000000	71.938	-50.8757
4940.000000	71.172	-50.8550
5000.000000	70.555	-50.4778
5080.000000	69.760	-49.5377
5150.000000	69.085	-48.3481
5220.000000	68.443	-46.8892
5300.000000	67.760	-44.9735
5380.000000	67.135	-42.8010
5450.000000	66.623	-40.7124
5520.000000	66.127	-38.4034
5600.000000	65.587	-35.4331
5700.000000	65.032	-30.9453
5800.000000	64.806	-26.8476
5900.000000	64.490	-24.6123
6000.000000	64.027	-21.6033
6080.000000	63.695	-18.7763
6150.000000	63.448	-16.1610
6220.000000	63.239	-13.5060
6300.000000	63.046	-10.4019
6400.000000	62.897	-6.4996
6500.000000	62.801	-2.5284
6600.000000	62.755	1.4240
6700.000000	62.768	5.3585
6800.000000	62.823	9.2797
6900.000000	62.913	13.1889
7000.000000	63.053	17.0479
7100.000000	63.249	20.8348
7200.000000	63.497	24.5164
7300.000000	63.795	28.0297
7400.000000	64.140	31.3705
7500.000000	64.539	34.5104
7620.000000	65.085	37.9912
7750.000000	65.774	41.2701
7880.000000	66.574	43.8760
8000.000000	67.380	45.4788
8120.000000	68.179	46.0670
8250.000000	69.073	45.2115
8380.000000	69.955	42.4098
8500.000000	70.655	37.8888
8620.000000	71.117	31.7127
8750.000000	71.237	24.0500
8850.000000	71.044	18.3370
9000.000000	70.378	11.4723
9120.000000	69.660	7.9882
9250.000000	68.847	6.1613
9380.000000	68.092	5.9811
9500.000000	67.483	6.9390
9620.000000	66.985	8.6849
9750.000000	66.591	11.2238
9880.000000	66.363	14.1727
10000.000000	66.315	17.0843
10150.000000	66.512	20.7288
10300.000000	66.974	24.0196
10440.000000	67.661	26.2394
10600.000000	68.728	26.9169
10750.000000	69.915	24.6133
10900.000000	71.056	18.4057
11060.000000	71.844	7.6422
11200.000000	71.962	-3.6370
11380.000000	71.331	-17.4860
11500.000000	70.529	-25.0333
11720.000000	68.594	-34.0017
11800.000000	67.834	-35.7315
12060.000000	65.478	-36.9181
12200.000000	64.384	-35.5856
12410.000000	63.021	-32.1385
12500.000000	62.526	-30.3336
12650.000000	61.790	-27.0552
12800.000000	61.172	-23.5434
13150.000000	60.268	-15.1763
13200.000000	60.206	-14.0660
13400.000000	60.139	-10.1583
13600.000000	60.360	-7.6679
13800.000000	60.829	-7.6820
14000.000000	61.387	-11.6733
14300.000000	61.498	-26.8133
14500.000000	60.434	-39.4362
14750.000000	57.915	-50.1242
15000.000000	54.964	-52.9735
15250.000000	52.230	-50.4127
15500.000000	49.873	-44.7911
15750.000000	47.891	-37.4220
16000.000000	46.262	-28.8915
16250.000000	45.174	-19.4007
16500.000000	44.470	-9.7577
16750.000000	43.988	-0.1964
17000.000000	43.742	9.3637
17250.000000	43.691	18.7099
17500.000000	43.865	27.5563
17750.000000	44.249	35.5623
18000.000000	44.808	42.3478
18250.000000	45.524	46.9959
18500.000000	46.320	48.7814
18750.000000	46.911	46.7851
19000.000000	46.916	41.1624
19250.000000	46.054	34.7234
19500.000000	44.395	31.0843
19750.000000	42.333	31.7936
