* Measurement data measured by REW V5.20.13
* Source: C:\Users\marcu\OneDrive\Desktop\Fix\ n.Gray f.Blue Foam R.txt
* Format: Comma/Tab/Space delimited data
* Dated: Jul 26, 2023 5:56:59 PM
* REW Settings:
*  C-weighting compensation: Off
*  Target level: 75.0 dB
* Note: ; Measurement imported from C:\Users\marcu\OneDrive\Desktop\Fix\ n.Gray f.Blue Foam R.txt Format: Comma/Tab/Space delimited data 54613 values loaded, 0 Hz to 20,000 Hz 
* Measurement:  n.Gray f.Blue Foam R
* Smoothing: None
* Frequency Step: 1/48 octave
* Start Frequency: 1.000 Hz
*
* Freq(Hz)	SPL(dB)	Phase(degrees)
1.000000	62.935	-102.5049
1.015000	62.809	-104.4660
1.030000	62.684	-106.4526
1.044000	62.570	-108.3306
1.060000	62.441	-110.5061
1.075000	62.322	-112.5751
1.090000	62.206	-114.6737
1.106000	62.085	-116.9477
1.120000	61.979	-118.9771
1.138000	61.839	-121.6400
1.150000	61.745	-123.4465
1.172000	61.572	-126.8178
1.180000	61.508	-128.0613
1.206000	61.302	-132.1604
1.220000	61.191	-134.4004
1.241000	61.026	-137.7968
1.250000	60.956	-139.2641
1.265000	60.840	-141.7230
1.280000	60.727	-144.1960
1.315000	60.470	-150.0049
1.320000	60.434	-150.8376
1.340000	60.295	-154.1711
1.360000	60.163	-157.5039
1.380000	60.038	-160.8293
1.400000	59.920	-164.1402
1.430000	59.760	-169.0645
1.450000	59.666	-172.3094
1.475000	59.564	-176.3211
1.500000	59.481	179.6356
1.525000	59.415	175.5508
1.550000	59.366	171.4373
1.575000	59.329	167.3076
1.600000	59.303	163.1744
1.625000	59.286	159.0504
1.650000	59.276	154.9481
1.675000	59.269	150.8803
1.700000	59.265	146.8596
1.725000	59.260	142.8986
1.750000	59.252	139.0099
1.775000	59.240	135.2062
1.800000	59.221	131.5002
1.825000	59.192	127.9045
1.850000	59.158	124.4225
1.875000	59.134	121.0347
1.900000	59.117	117.7333
1.925000	59.105	114.5111
1.950000	59.095	111.3611
1.975000	59.084	108.2764
2.000000	59.070	105.2496
2.030000	59.044	101.6843
2.060000	59.004	98.1801
2.090000	58.945	94.7250
2.120000	58.863	91.3066
2.140000	58.793	89.0421
2.180000	58.610	84.5314
2.200000	58.494	82.2802
2.240000	58.269	78.2731
2.270000	58.111	75.7234
2.300000	57.951	73.4240
2.330000	57.777	71.2488
2.360000	57.578	69.0715
2.400000	57.255	65.9472
2.430000	56.954	63.2744
2.470000	56.453	59.0314
2.500000	55.989	55.1761
2.540000	55.230	48.8983
2.580000	54.256	41.0569
2.620000	52.832	31.6382
2.650000	51.514	23.7025
2.690000	49.546	12.1885
2.720000	47.994	3.0091
2.760000	45.948	-9.7264
2.800000	44.067	-22.7675
2.850000	42.182	-39.0637
2.900000	41.092	-54.8342
2.950000	41.090	-69.7497
3.000000	42.216	-85.2965
3.040000	43.743	-98.1528
3.070000	45.154	-107.8458
3.110000	47.267	-120.6005
3.150000	49.507	-132.8914
3.200000	52.251	-147.1528
3.250000	54.656	-159.6516
3.300000	56.427	-169.8116
3.350000	57.686	-177.3342
3.400000	58.692	177.3481
3.450000	59.496	173.6880
3.500000	60.150	171.1382
3.550000	60.705	169.1511
3.600000	61.211	167.1792
3.650000	61.720	164.6752
3.700000	62.237	161.5206
3.750000	62.681	158.4664
3.820000	63.194	154.4075
3.870000	63.498	151.6514
3.950000	63.908	147.4657
4.000000	64.133	144.9762
4.060000	64.384	142.1007
4.120000	64.581	139.3381
4.180000	64.729	136.7112
4.250000	64.852	133.8521
4.310000	64.926	131.6071
4.370000	64.981	129.5792
4.440000	65.022	127.4979
4.500000	65.014	125.9170
4.550000	64.985	124.7495
4.620000	64.926	123.3605
4.680000	64.874	122.4128
4.750000	64.828	121.6105
4.820000	64.795	121.2028
4.870000	64.761	121.1745
4.940000	64.716	121.4116
5.000000	64.693	121.7897
5.080000	64.707	122.4070
5.150000	64.782	122.9503
5.220000	64.911	123.7067
5.300000	65.110	124.7666
5.380000	65.351	125.8112
5.450000	65.586	126.5286
5.520000	65.836	126.9200
5.600000	66.168	127.1037
5.700000	66.629	127.0191
5.800000	67.091	126.5899
5.900000	67.509	125.8032
6.000000	67.908	124.5659
6.080000	68.213	123.3457
6.150000	68.461	122.1944
6.220000	68.686	121.0342
6.300000	68.913	119.6630
6.400000	69.158	117.7970
6.500000	69.367	115.9026
6.600000	69.547	114.1298
6.700000	69.689	112.4596
6.800000	69.798	110.8571
6.900000	69.891	109.3884
7.000000	69.979	108.1151
7.100000	70.051	107.0309
7.200000	70.115	106.0972
7.300000	70.188	105.2777
7.400000	70.278	104.5781
7.500000	70.377	104.0315
7.620000	70.510	103.4487
7.750000	70.682	102.7600
7.880000	70.885	102.0815
8.000000	71.085	101.3940
8.120000	71.286	100.5588
8.250000	71.513	99.5125
8.380000	71.735	98.3605
8.500000	71.921	97.2131
8.620000	72.095	95.9639
8.750000	72.267	94.5848
8.850000	72.383	93.5518
9.000000	72.534	91.9949
9.120000	72.639	90.8034
9.250000	72.743	89.6185
9.380000	72.831	88.5178
9.500000	72.910	87.5762
9.620000	72.993	86.7176
9.750000	73.081	85.8755
9.880000	73.165	85.0743
10.000000	73.238	84.3608
10.150000	73.323	83.5098
10.300000	73.405	82.6390
10.440000	73.478	81.8054
10.600000	73.557	80.8343
10.750000	73.623	79.8942
10.900000	73.683	78.9370
11.060000	73.735	77.9351
11.200000	73.771	77.0682
11.380000	73.808	75.9992
11.500000	73.826	75.3246
11.720000	73.852	74.1498
11.800000	73.861	73.7432
12.060000	73.885	72.4828
12.200000	73.895	71.8163
12.410000	73.912	70.8312
12.500000	73.925	70.4050
12.650000	73.954	69.6896
12.800000	73.985	68.9755
13.150000	74.037	67.3256
13.200000	74.043	67.0972
13.400000	74.060	66.2039
13.600000	74.073	65.3466
13.800000	74.083	64.5314
14.000000	74.094	63.7325
14.300000	74.111	62.5484
14.500000	74.122	61.7402
14.750000	74.132	60.7103
15.000000	74.135	59.6641
15.250000	74.129	58.6359
15.500000	74.118	57.6514
15.750000	74.105	56.7195
16.000000	74.099	55.8378
16.250000	74.104	54.9728
16.500000	74.119	54.1071
16.750000	74.137	53.2158
17.000000	74.154	52.3064
17.250000	74.167	51.3938
17.500000	74.175	50.5009
17.750000	74.180	49.6521
18.000000	74.185	48.8483
18.250000	74.193	48.0895
18.500000	74.206	47.3545
18.750000	74.220	46.6332
19.000000	74.235	45.9169
19.250000	74.250	45.2074
19.500000	74.263	44.5135
19.750000	74.275	43.8413
20.000000	74.286	43.1948
20.299999	74.301	42.4443
20.600000	74.318	41.7114
20.900000	74.333	40.9865
21.200001	74.346	40.2692
21.400000	74.352	39.8012
21.799999	74.361	38.8960
22.000000	74.366	38.4579
22.400000	74.376	37.5970
22.700001	74.383	36.9476
23.000000	74.389	36.2875
23.299999	74.391	35.6271
23.600000	74.390	34.9819
24.000000	74.386	34.1647
24.299999	74.385	33.5825
24.700001	74.390	32.8229
25.000000	74.396	32.2457
25.400000	74.407	31.4566
25.799999	74.416	30.6638
26.200001	74.420	29.8981
26.500000	74.424	29.3514
26.900000	74.432	28.6556
27.200001	74.440	28.1477
27.600000	74.454	27.4734
28.000000	74.467	26.7925
28.500000	74.479	25.9382
29.000000	74.483	25.1167
29.500000	74.481	24.3668
30.000000	74.481	23.6830
30.400000	74.486	23.1461
30.700001	74.490	22.7312
31.100000	74.494	22.1596
31.500000	74.493	21.5859
32.000000	74.487	20.8993
32.500000	74.482	20.2435
33.000000	74.479	19.5832
33.500000	74.473	18.9125
34.000000	74.464	18.2660
34.500000	74.456	17.6622
35.000000	74.455	17.0735
35.500000	74.456	16.4641
36.000000	74.453	15.8397
36.500000	74.446	15.2341
37.000000	74.437	14.6709
37.500000	74.430	14.1436
38.200001	74.426	13.4224
38.700001	74.424	12.8953
39.500000	74.417	12.0343
40.000000	74.407	11.5098
40.599998	74.396	10.9119
41.200001	74.385	10.3419
41.799999	74.376	9.7837
42.500000	74.367	9.1318
43.099998	74.356	8.5756
43.700001	74.344	8.0392
44.400002	74.331	7.4389
45.000000	74.321	6.9271
45.500000	74.311	6.5037
46.200001	74.295	5.9331
46.799999	74.283	5.4557
47.500000	74.269	4.8880
48.200001	74.252	4.3274
48.700001	74.237	3.9442
49.400002	74.218	3.4254
50.000000	74.202	2.9929
50.799999	74.181	2.4388
51.500000	74.165	1.9650
52.200001	74.150	1.4939
53.000000	74.130	0.9628
53.799999	74.111	0.4371
54.500000	74.093	-0.0164
55.200001	74.073	-0.4608
56.000000	74.050	-0.9528
57.000000	74.023	-1.5502
58.000000	73.997	-2.1492
59.000000	73.968	-2.7254
60.000000	73.939	-3.2623
60.799999	73.917	-3.6821
61.500000	73.898	-4.0522
62.200001	73.878	-4.4188
63.000000	73.853	-4.8260
64.000000	73.819	-5.3174
65.000000	73.786	-5.7972
66.000000	73.752	-6.2719
67.000000	73.718	-6.7240
68.000000	73.685	-7.1586
69.000000	73.653	-7.5944
70.000000	73.619	-8.0338
71.000000	73.581	-8.4457
72.000000	73.545	-8.8392
73.000000	73.510	-9.2238
74.000000	73.476	-9.6102
75.000000	73.441	-9.9999
76.199997	73.398	-10.4277
77.500000	73.355	-10.8792
78.800003	73.312	-11.3293
80.000000	73.269	-11.7361
81.199997	73.226	-12.1180
82.500000	73.181	-12.5215
83.800003	73.136	-12.9265
85.000000	73.093	-13.2911
86.199997	73.048	-13.6440
87.500000	73.000	-13.9952
88.500000	72.967	-14.2646
90.000000	72.915	-14.6903
91.199997	72.873	-15.0077
92.500000	72.826	-15.3346
93.800003	72.781	-15.6364
95.000000	72.741	-15.9161
96.199997	72.699	-16.1952
97.500000	72.653	-16.4910
98.800003	72.606	-16.7794
100.000000	72.561	-17.0331
101.500000	72.507	-17.3269
103.000000	72.456	-17.6060
104.400002	72.410	-17.8684
106.000000	72.357	-18.1740
107.500000	72.304	-18.4484
109.000000	72.252	-18.7115
110.599998	72.196	-18.9852
112.000000	72.149	-19.2099
113.800003	72.089	-19.5050
115.000000	72.049	-19.6826
117.199997	71.979	-20.0079
118.000000	71.951	-20.1278
120.599998	71.862	-20.4573
122.000000	71.817	-20.6194
124.099998	71.751	-20.8763
125.000000	71.723	-20.9905
126.500000	71.677	-21.1786
128.000000	71.631	-21.3507
131.500000	71.529	-21.6928
132.000000	71.516	-21.7384
134.000000	71.462	-21.9283
136.000000	71.407	-22.1384
138.000000	71.352	-22.3363
140.000000	71.297	-22.5033
143.000000	71.215	-22.7110
145.000000	71.156	-22.8458
147.500000	71.090	-23.0038
150.000000	71.028	-23.1839
152.500000	70.965	-23.3254
155.000000	70.898	-23.4451
157.500000	70.833	-23.5718
160.000000	70.770	-23.6962
162.500000	70.698	-23.8064
165.000000	70.623	-23.8888
167.500000	70.548	-23.9766
170.000000	70.476	-24.0734
172.500000	70.406	-24.1509
175.000000	70.333	-24.1968
177.500000	70.259	-24.2264
180.000000	70.185	-24.2724
182.500000	70.112	-24.3268
185.000000	70.046	-24.3572
187.500000	69.981	-24.3649
190.000000	69.915	-24.3652
192.500000	69.847	-24.3849
195.000000	69.780	-24.4082
197.500000	69.715	-24.4148
200.000000	69.651	-24.4128
203.000000	69.579	-24.4053
206.000000	69.512	-24.3806
209.000000	69.444	-24.3344
212.000000	69.377	-24.2894
214.000000	69.334	-24.2569
218.000000	69.249	-24.1865
220.000000	69.204	-24.1364
224.000000	69.117	-24.0588
227.000000	69.057	-24.0032
230.000000	68.999	-23.9274
233.000000	68.937	-23.8521
236.000000	68.877	-23.7686
240.000000	68.800	-23.6424
243.000000	68.743	-23.5463
247.000000	68.665	-23.4120
250.000000	68.609	-23.3063
254.000000	68.538	-23.1538
258.000000	68.466	-22.9801
262.000000	68.395	-22.8170
265.000000	68.345	-22.6957
269.000000	68.281	-22.5100
272.000000	68.231	-22.3783
276.000000	68.170	-22.1998
280.000000	68.108	-22.0170
285.000000	68.028	-21.7835
290.000000	67.950	-21.5171
295.000000	67.881	-21.2134
300.000000	67.813	-20.9400
304.000000	67.756	-20.7398
307.000000	67.714	-20.5803
311.000000	67.659	-20.3589
315.000000	67.604	-20.1349
320.000000	67.538	-19.8324
325.000000	67.475	-19.5139
330.000000	67.413	-19.1946
335.000000	67.350	-18.8787
340.000000	67.288	-18.5710
345.000000	67.227	-18.2731
350.000000	67.169	-17.9606
355.000000	67.115	-17.6054
360.000000	67.061	-17.2603
365.000000	67.007	-16.9316
370.000000	66.954	-16.6011
375.000000	66.902	-16.2574
382.000000	66.835	-15.7966
387.000000	66.789	-15.4481
395.000000	66.714	-14.8875
400.000000	66.669	-14.5440
406.000000	66.612	-14.1252
412.000000	66.557	-13.6803
418.000000	66.510	-13.2202
425.000000	66.457	-12.7092
431.000000	66.405	-12.3082
437.000000	66.358	-11.8912
444.000000	66.309	-11.3749
450.000000	66.267	-10.9512
455.000000	66.232	-10.5801
462.000000	66.185	-10.0314
468.000000	66.145	-9.5865
475.000000	66.096	-9.1061
482.000000	66.047	-8.5891
487.000000	66.016	-8.1801
494.000000	65.976	-7.6222
500.000000	65.936	-7.1647
508.000000	65.886	-6.5593
515.000000	65.848	-6.0049
522.000000	65.813	-5.4583
530.000000	65.777	-4.8439
538.000000	65.742	-4.1989
545.000000	65.709	-3.6412
552.000000	65.675	-3.1239
560.000000	65.641	-2.4777
570.000000	65.595	-1.6092
580.000000	65.549	-0.7938
590.000000	65.508	0.0273
600.000000	65.466	0.9041
608.000000	65.438	1.6364
615.000000	65.418	2.3033
622.000000	65.398	2.9703
630.000000	65.378	3.7284
640.000000	65.363	4.6500
650.000000	65.359	5.5540
660.000000	65.355	6.4813
670.000000	65.351	7.4023
680.000000	65.353	8.2755
690.000000	65.352	9.1625
700.000000	65.351	10.0769
710.000000	65.353	10.9668
720.000000	65.360	11.8659
730.000000	65.367	12.7965
740.000000	65.375	13.7059
750.000000	65.393	14.6174
762.000000	65.419	15.7338
775.000000	65.450	16.9142
788.000000	65.489	18.1050
800.000000	65.533	19.2266
812.000000	65.577	20.2844
825.000000	65.623	21.3859
838.000000	65.678	22.4812
850.000000	65.733	23.4548
862.000000	65.783	24.4030
875.000000	65.838	25.4119
885.000000	65.882	26.1833
900.000000	65.951	27.3523
912.000000	66.009	28.2622
925.000000	66.078	29.2464
938.000000	66.152	30.2356
950.000000	66.220	31.1124
962.000000	66.296	31.9759
975.000000	66.381	32.9022
988.000000	66.468	33.8094
1000.000000	66.557	34.6322
1015.000000	66.672	35.5624
1030.000000	66.799	36.5110
1044.000000	66.919	37.3566
1060.000000	67.057	38.2487
1075.000000	67.185	39.0484
1090.000000	67.316	39.8096
1106.000000	67.456	40.6436
1120.000000	67.577	41.2994
1138.000000	67.738	42.0771
1150.000000	67.841	42.5857
1172.000000	68.032	43.5110
1180.000000	68.097	43.8339
1206.000000	68.305	44.8586
1220.000000	68.416	45.3973
1241.000000	68.580	46.1859
1250.000000	68.647	46.5070
1265.000000	68.744	47.0456
1280.000000	68.834	47.5854
1315.000000	69.042	48.8595
1320.000000	69.071	49.0379
1340.000000	69.190	49.7413
1360.000000	69.311	50.4388
1380.000000	69.436	51.1547
1400.000000	69.559	51.8587
1430.000000	69.745	52.9304
1450.000000	69.875	53.6459
1475.000000	70.041	54.5016
1500.000000	70.213	55.3617
1525.000000	70.389	56.2252
1550.000000	70.572	57.0361
1575.000000	70.765	57.8024
1600.000000	70.972	58.5457
1625.000000	71.209	59.2448
1650.000000	71.459	59.8741
1675.000000	71.714	60.4417
1700.000000	71.973	60.9520
1725.000000	72.236	61.3840
1750.000000	72.504	61.7173
1775.000000	72.776	61.9497
1800.000000	73.047	62.0945
1825.000000	73.314	62.1384
1850.000000	73.576	62.0942
1875.000000	73.835	61.9377
1900.000000	74.091	61.6591
1925.000000	74.341	61.2713
1950.000000	74.582	60.7839
1975.000000	74.813	60.1860
2000.000000	75.035	59.4704
2030.000000	75.281	58.4603
2060.000000	75.514	57.2905
2090.000000	75.737	55.9598
2120.000000	75.955	54.4573
2140.000000	76.099	53.3621
2180.000000	76.383	50.9589
2200.000000	76.520	49.6556
2240.000000	76.776	46.8774
2270.000000	76.944	44.6625
2300.000000	77.089	42.3441
2330.000000	77.207	39.9556
2360.000000	77.296	37.5154
2400.000000	77.375	34.2217
2430.000000	77.405	31.7650
2470.000000	77.408	28.5740
2500.000000	77.386	26.2824
2540.000000	77.325	23.4087
2580.000000	77.236	20.7903
2620.000000	77.125	18.4551
2650.000000	77.031	16.8927
2690.000000	76.894	15.0676
2720.000000	76.787	13.8832
2760.000000	76.639	12.5349
2800.000000	76.490	11.4352
2850.000000	76.310	10.3556
2900.000000	76.137	9.5883
2950.000000	75.977	9.0772
3000.000000	75.838	8.7718
3040.000000	75.740	8.6549
3070.000000	75.674	8.6475
3110.000000	75.599	8.7061
3150.000000	75.539	8.8143
3200.000000	75.485	9.0413
3250.000000	75.450	9.3468
3300.000000	75.439	9.6898
3350.000000	75.456	10.0536
3400.000000	75.497	10.4113
3450.000000	75.563	10.7631
3500.000000	75.654	11.0580
3550.000000	75.770	11.2920
3600.000000	75.907	11.4413
3650.000000	76.070	11.4728
3700.000000	76.258	11.3425
3750.000000	76.467	11.0242
3820.000000	76.789	10.2031
3870.000000	77.038	9.2684
3950.000000	77.459	7.0298
4000.000000	77.721	5.0842
4060.000000	78.018	2.1178
4120.000000	78.280	-1.5980
4180.000000	78.489	-6.1333
4250.000000	78.640	-12.5967
4310.000000	78.662	-19.1654
4370.000000	78.567	-26.3740
4440.000000	78.303	-34.7164
4500.000000	77.948	-41.0449
4550.000000	77.563	-45.4708
4620.000000	76.901	-50.3300
4680.000000	76.244	-53.3728
4750.000000	75.407	-55.8099
4820.000000	74.531	-57.2563
4870.000000	73.899	-57.7838
4940.000000	73.022	-57.9520
5000.000000	72.290	-57.6659
5080.000000	71.348	-56.7795
5150.000000	70.566	-55.6162
5220.000000	69.831	-54.1595
5300.000000	69.043	-52.2021
5380.000000	68.308	-49.9697
5450.000000	67.707	-47.8120
5520.000000	67.139	-45.4502
5600.000000	66.520	-42.3627
5700.000000	65.888	-37.4672
5800.000000	65.631	-33.6223
5900.000000	65.192	-31.4926
6000.000000	64.644	-28.3005
6080.000000	64.247	-25.3299
6150.000000	63.942	-22.6348
6220.000000	63.671	-19.8614
6300.000000	63.407	-16.6478
6400.000000	63.171	-12.5822
6500.000000	63.006	-8.4879
6600.000000	62.886	-4.3644
6700.000000	62.802	-0.2139
6800.000000	62.763	3.9161
6900.000000	62.773	8.0562
7000.000000	62.833	12.1814
7100.000000	62.941	16.3025
7200.000000	63.090	20.3563
7300.000000	63.281	24.2957
7400.000000	63.521	28.1318
7500.000000	63.815	31.8784
7620.000000	64.241	36.1995
7750.000000	64.782	40.6476
7880.000000	65.409	44.7717
8000.000000	66.062	48.2094
8120.000000	66.750	51.1008
8250.000000	67.582	53.5173
8380.000000	68.516	54.8931
8500.000000	69.464	54.8994
8620.000000	70.460	53.2858
8750.000000	71.492	49.2987
8850.000000	72.155	44.4884
9000.000000	72.729	35.0229
9120.000000	72.720	26.8638
9250.000000	72.292	19.1848
9380.000000	71.589	13.8044
9500.000000	70.849	11.0017
9620.000000	70.133	9.9594
9750.000000	69.463	10.3307
9880.000000	68.954	11.7913
10000.000000	68.651	13.7921
10150.000000	68.547	16.7779
10300.000000	68.736	19.8428
10440.000000	69.179	22.3058
10600.000000	70.011	23.8365
10750.000000	71.057	22.9363
10900.000000	72.206	18.4469
11060.000000	73.191	8.8766
11200.000000	73.547	-2.7534
11380.000000	73.116	-18.7181
11500.000000	72.324	-27.8302
11720.000000	70.223	-38.8343
11800.000000	69.369	-41.0123
12060.000000	66.702	-43.1012
12200.000000	65.435	-42.0355
12410.000000	63.760	-38.6503
12500.000000	63.120	-36.7321
12650.000000	62.150	-33.0717
12800.000000	61.311	-28.9736
13150.000000	59.911	-18.5281
13200.000000	59.771	-16.9908
13400.000000	59.373	-10.9152
13600.000000	59.257	-5.1860
13800.000000	59.447	-0.2253
14000.000000	60.001	3.2314
14300.000000	61.532	2.4445
14500.000000	62.710	-5.9547
14750.000000	62.932	-27.8811
15000.000000	60.618	-48.9367
15250.000000	57.028	-57.0798
15500.000000	53.653	-56.1814
15750.000000	50.836	-50.9266
16000.000000	48.555	-43.3005
16250.000000	46.943	-34.2692
16500.000000	45.756	-24.8962
16750.000000	44.863	-15.1731
17000.000000	44.187	-5.2966
17250.000000	43.729	4.4160
17500.000000	43.489	14.0079
17750.000000	43.429	23.1315
18000.000000	43.523	31.7813
18250.000000	43.774	39.4970
18500.000000	44.157	45.6905
18750.000000	44.616	49.6913
19000.000000	45.046	50.9510
19250.000000	45.149	49.3450
19500.000000	44.613	45.6008
19750.000000	43.369	42.2577
