* Measurement data measured by REW V5.20.13
* Source: C:\Users\marcu\OneDrive\Desktop\Fix\ n.Gray f.Green Foam L.txt
* Format: Comma/Tab/Space delimited data
* Dated: Jul 26, 2023 5:56:58 PM
* REW Settings:
*  C-weighting compensation: Off
*  Target level: 75.0 dB
* Note: ; Measurement imported from C:\Users\marcu\OneDrive\Desktop\Fix\ n.Gray f.Green Foam L.txt Format: Comma/Tab/Space delimited data 54613 values loaded, 0 Hz to 20,000 Hz 
* Measurement:  n.Gray f.Green Foam L
* Smoothing: None
* Frequency Step: 1/48 octave
* Start Frequency: 1.000 Hz
*
* Freq(Hz)	SPL(dB)	Phase(degrees)
1.000000	65.647	-151.1598
1.015000	65.703	-152.6751
1.030000	65.757	-154.1859
1.044000	65.805	-155.5929
1.060000	65.858	-157.1987
1.075000	65.906	-158.7032
1.090000	65.951	-160.2081
1.106000	65.997	-161.8135
1.120000	66.035	-163.2106
1.138000	66.082	-164.9942
1.150000	66.111	-166.1757
1.172000	66.162	-168.3265
1.180000	66.179	-169.1039
1.206000	66.231	-171.6140
1.220000	66.256	-172.9554
1.241000	66.290	-174.9552
1.250000	66.304	-175.8078
1.265000	66.324	-177.2232
1.280000	66.343	-178.6319
1.315000	66.378	178.1054
1.320000	66.382	177.6420
1.340000	66.395	175.7941
1.360000	66.405	173.9553
1.380000	66.411	172.1249
1.400000	66.413	170.3020
1.430000	66.408	167.5801
1.450000	66.400	165.7728
1.475000	66.385	163.5208
1.500000	66.365	161.2796
1.525000	66.341	159.0505
1.550000	66.311	156.8340
1.575000	66.276	154.6307
1.600000	66.235	152.4413
1.625000	66.188	150.2661
1.650000	66.134	148.1059
1.675000	66.072	145.9611
1.700000	66.004	143.8323
1.725000	65.927	141.7202
1.750000	65.842	139.6251
1.775000	65.748	137.5478
1.800000	65.645	135.4888
1.825000	65.532	133.4485
1.850000	65.412	131.4178
1.875000	65.290	129.3767
1.900000	65.167	127.3311
1.925000	65.038	125.2876
1.950000	64.904	123.2533
1.975000	64.761	121.2349
2.000000	64.609	119.2393
2.030000	64.411	116.8842
2.060000	64.194	114.5836
2.090000	63.954	112.3493
2.120000	63.688	110.1930
2.140000	63.496	108.8047
2.180000	63.069	106.1620
2.200000	62.833	104.9119
2.240000	62.297	101.9912
2.270000	61.842	99.4095
2.300000	61.351	96.6567
2.330000	60.831	93.8808
2.360000	60.289	91.2298
2.400000	59.547	88.1449
2.430000	58.985	86.3604
2.470000	58.245	84.9678
2.500000	57.705	84.8552
2.540000	57.022	86.2286
2.580000	56.377	89.7411
2.620000	55.640	96.0605
2.650000	55.034	102.3669
2.690000	54.198	112.3106
2.720000	53.580	120.5423
2.760000	52.813	131.9957
2.800000	52.161	143.3623
2.850000	51.592	156.3964
2.900000	51.395	166.8673
2.950000	51.685	173.6387
3.000000	52.550	177.8452
3.040000	53.570	179.8789
3.070000	54.474	-179.2417
3.110000	55.799	-178.7702
3.150000	57.185	-178.9172
3.200000	58.881	-179.6670
3.250000	60.387	179.3180
3.300000	61.545	178.4223
3.350000	62.422	177.1783
3.400000	63.156	175.2054
3.450000	63.774	172.6948
3.500000	64.303	169.8372
3.550000	64.768	166.8239
3.600000	65.198	163.8458
3.650000	65.619	161.0939
3.700000	66.031	158.5939
3.750000	66.392	156.0593
3.820000	66.822	152.4803
3.870000	67.084	149.9399
3.950000	67.446	145.9808
4.000000	67.648	143.6158
4.060000	67.871	140.9128
4.120000	68.054	138.2751
4.180000	68.199	135.7158
4.250000	68.329	132.8703
4.310000	68.417	130.5869
4.370000	68.491	128.4798
4.440000	68.558	126.2590
4.500000	68.583	124.5142
4.550000	68.587	123.1769
4.620000	68.578	121.4973
4.680000	68.566	120.2493
4.750000	68.563	119.0340
4.820000	68.565	118.1210
4.870000	68.559	117.6642
4.940000	68.551	117.2418
5.000000	68.552	117.0311
5.080000	68.584	116.8827
5.150000	68.655	116.8157
5.220000	68.759	116.9537
5.300000	68.912	117.3077
5.380000	69.095	117.7059
5.450000	69.277	117.9550
5.520000	69.477	118.0089
5.600000	69.745	117.9572
5.700000	70.120	117.7445
5.800000	70.503	117.3035
5.900000	70.862	116.5627
6.000000	71.220	115.4877
6.080000	71.500	114.4554
6.150000	71.732	113.4794
6.220000	71.945	112.4792
6.300000	72.164	111.2764
6.400000	72.410	109.6318
6.500000	72.627	107.9471
6.600000	72.815	106.3471
6.700000	72.969	104.8099
6.800000	73.092	103.3109
6.900000	73.197	101.9168
7.000000	73.292	100.6873
7.100000	73.367	99.6058
7.200000	73.431	98.6503
7.300000	73.496	97.8071
7.400000	73.570	97.0882
7.500000	73.645	96.5115
7.620000	73.742	95.9097
7.750000	73.866	95.2605
7.880000	74.012	94.6745
8.000000	74.155	94.1126
8.120000	74.301	93.4436
8.250000	74.469	92.6313
8.380000	74.633	91.7366
8.500000	74.770	90.8255
8.620000	74.898	89.8246
8.750000	75.022	88.7053
8.850000	75.103	87.8515
9.000000	75.202	86.5418
9.120000	75.267	85.5259
9.250000	75.324	84.5030
9.380000	75.367	83.5370
9.500000	75.402	82.7054
9.620000	75.436	81.9455
9.750000	75.471	81.1952
9.880000	75.499	80.4823
10.000000	75.520	79.8524
10.150000	75.539	79.1039
10.300000	75.556	78.3375
10.440000	75.571	77.6050
10.600000	75.584	76.7457
10.750000	75.593	75.9021
10.900000	75.597	75.0340
11.060000	75.594	74.1101
11.200000	75.584	73.2975
11.380000	75.565	72.2817
11.500000	75.547	71.6311
11.720000	75.511	70.4843
11.800000	75.498	70.0849
12.060000	75.456	68.8375
12.200000	75.434	68.1777
12.410000	75.407	67.2010
12.500000	75.403	66.7783
12.650000	75.407	66.0687
12.800000	75.415	65.3593
13.150000	75.427	63.7132
13.200000	75.428	63.4849
13.400000	75.429	62.5895
13.600000	75.431	61.7320
13.800000	75.433	60.9194
14.000000	75.439	60.1311
14.300000	75.455	58.9797
14.500000	75.470	58.2056
14.750000	75.488	57.2273
15.000000	75.503	56.2401
15.250000	75.511	55.2725
15.500000	75.515	54.3510
15.750000	75.517	53.4861
16.000000	75.525	52.6808
16.250000	75.542	51.9068
16.500000	75.568	51.1473
16.750000	75.596	50.3775
17.000000	75.622	49.5968
17.250000	75.644	48.8146
17.500000	75.661	48.0461
17.750000	75.675	47.3103
18.000000	75.687	46.6072
18.250000	75.700	45.9359
18.500000	75.715	45.2786
18.750000	75.731	44.6264
19.000000	75.747	43.9717
19.250000	75.762	43.3158
19.500000	75.774	42.6659
19.750000	75.785	42.0269
20.000000	75.796	41.4035
20.299999	75.811	40.6694
20.600000	75.828	39.9437
20.900000	75.844	39.2200
21.200001	75.859	38.5004
21.400000	75.868	38.0291
21.799999	75.884	37.1140
22.000000	75.892	36.6705
22.400000	75.911	35.8016
22.700001	75.927	35.1525
23.000000	75.942	34.4996
23.299999	75.954	33.8507
23.600000	75.964	33.2168
24.000000	75.974	32.4070
24.299999	75.983	31.8239
24.700001	75.997	31.0615
25.000000	76.007	30.4899
25.400000	76.018	29.7272
25.799999	76.027	28.9777
26.200001	76.034	28.2522
26.500000	76.038	27.7203
26.900000	76.045	27.0179
27.200001	76.049	26.4919
27.600000	76.053	25.7949
28.000000	76.055	25.1099
28.500000	76.059	24.2690
29.000000	76.061	23.4319
29.500000	76.062	22.5995
30.000000	76.061	21.7900
30.400000	76.060	21.1616
30.700001	76.061	20.6959
31.100000	76.061	20.0764
31.500000	76.061	19.4606
32.000000	76.058	18.7101
32.500000	76.055	17.9872
33.000000	76.054	17.2794
33.500000	76.052	16.5756
34.000000	76.049	15.8801
34.500000	76.043	15.1996
35.000000	76.037	14.5316
35.500000	76.030	13.8740
36.000000	76.022	13.2305
36.500000	76.013	12.6012
37.000000	76.005	11.9805
37.500000	75.996	11.3651
38.200001	75.983	10.5177
38.700001	75.973	9.9219
39.500000	75.956	8.9834
40.000000	75.945	8.4152
40.599998	75.933	7.7533
41.200001	75.922	7.1008
41.799999	75.909	6.4569
42.500000	75.893	5.7284
43.099998	75.880	5.1200
43.700001	75.865	4.5205
44.400002	75.848	3.8368
45.000000	75.832	3.2628
45.500000	75.820	2.7905
46.200001	75.800	2.1434
46.799999	75.784	1.6022
47.500000	75.765	0.9778
48.200001	75.744	0.3657
48.700001	75.729	-0.0600
49.400002	75.708	-0.6440
50.000000	75.689	-1.1346
50.799999	75.665	-1.7687
51.500000	75.644	-2.3103
52.200001	75.623	-2.8464
53.000000	75.598	-3.4479
53.799999	75.572	-4.0254
54.500000	75.551	-4.5177
55.200001	75.529	-5.0114
56.000000	75.501	-5.5629
57.000000	75.466	-6.2115
58.000000	75.432	-6.8535
59.000000	75.396	-7.4750
60.000000	75.360	-8.0734
60.799999	75.332	-8.5489
61.500000	75.307	-8.9551
62.200001	75.281	-9.3480
63.000000	75.253	-9.7885
64.000000	75.214	-10.3287
65.000000	75.175	-10.8497
66.000000	75.136	-11.3580
67.000000	75.094	-11.8475
68.000000	75.053	-12.3221
69.000000	75.013	-12.7943
70.000000	74.971	-13.2570
71.000000	74.928	-13.6957
72.000000	74.888	-14.1240
73.000000	74.847	-14.5483
74.000000	74.805	-14.9611
75.000000	74.762	-15.3561
76.199997	74.712	-15.8125
77.500000	74.659	-16.2977
78.800003	74.604	-16.7689
80.000000	74.554	-17.1928
81.199997	74.504	-17.6011
82.500000	74.451	-18.0305
83.800003	74.396	-18.4494
85.000000	74.345	-18.8207
86.199997	74.296	-19.1831
87.500000	74.242	-19.5636
88.500000	74.200	-19.8457
90.000000	74.138	-20.2533
91.199997	74.087	-20.5682
92.500000	74.034	-20.9008
93.800003	73.981	-21.2245
95.000000	73.932	-21.5131
96.199997	73.883	-21.7957
97.500000	73.829	-22.0966
98.800003	73.775	-22.3884
100.000000	73.726	-22.6412
101.500000	73.667	-22.9560
103.000000	73.606	-23.2645
104.400002	73.549	-23.5342
106.000000	73.485	-23.8298
107.500000	73.425	-24.0961
109.000000	73.366	-24.3546
110.599998	73.303	-24.6213
112.000000	73.249	-24.8483
113.800003	73.179	-25.1288
115.000000	73.133	-25.3046
117.199997	73.047	-25.6149
118.000000	73.016	-25.7217
120.599998	72.917	-26.0621
122.000000	72.864	-26.2377
124.099998	72.787	-26.4939
125.000000	72.755	-26.5989
126.500000	72.702	-26.7629
128.000000	72.652	-26.9191
131.500000	72.535	-27.2712
132.000000	72.518	-27.3192
134.000000	72.452	-27.4989
136.000000	72.389	-27.6692
138.000000	72.325	-27.8320
140.000000	72.261	-27.9836
143.000000	72.167	-28.1990
145.000000	72.105	-28.3306
147.500000	72.030	-28.4830
150.000000	71.954	-28.6217
152.500000	71.880	-28.7562
155.000000	71.805	-28.8741
157.500000	71.733	-28.9771
160.000000	71.659	-29.0634
162.500000	71.576	-29.1371
165.000000	71.493	-29.2144
167.500000	71.409	-29.2928
170.000000	71.326	-29.3529
172.500000	71.245	-29.3955
175.000000	71.165	-29.4371
177.500000	71.085	-29.4731
180.000000	71.007	-29.4977
182.500000	70.929	-29.5150
185.000000	70.852	-29.5232
187.500000	70.776	-29.5266
190.000000	70.701	-29.5197
192.500000	70.627	-29.5020
195.000000	70.554	-29.4799
197.500000	70.482	-29.4560
200.000000	70.411	-29.4333
203.000000	70.331	-29.3958
206.000000	70.255	-29.3409
209.000000	70.181	-29.2738
212.000000	70.106	-29.2182
214.000000	70.057	-29.1744
218.000000	69.962	-29.0771
220.000000	69.915	-29.0161
224.000000	69.823	-28.8805
227.000000	69.754	-28.7844
230.000000	69.687	-28.6785
233.000000	69.620	-28.5680
236.000000	69.555	-28.4481
240.000000	69.469	-28.2865
243.000000	69.406	-28.1646
247.000000	69.324	-28.0028
250.000000	69.263	-27.8749
254.000000	69.184	-27.6874
258.000000	69.107	-27.4946
262.000000	69.033	-27.2842
265.000000	68.978	-27.1247
269.000000	68.907	-26.9089
272.000000	68.853	-26.7407
276.000000	68.782	-26.5153
280.000000	68.712	-26.3011
285.000000	68.629	-26.0163
290.000000	68.548	-25.7040
295.000000	68.468	-25.3914
300.000000	68.392	-25.0818
304.000000	68.330	-24.8221
307.000000	68.286	-24.6204
311.000000	68.231	-24.3566
315.000000	68.173	-24.0908
320.000000	68.103	-23.7533
325.000000	68.035	-23.4163
330.000000	67.966	-23.0645
335.000000	67.901	-22.7061
340.000000	67.836	-22.3518
345.000000	67.775	-21.9934
350.000000	67.714	-21.6361
355.000000	67.659	-21.2665
360.000000	67.602	-20.9105
365.000000	67.546	-20.5505
370.000000	67.492	-20.1797
375.000000	67.442	-19.8079
382.000000	67.372	-19.3013
387.000000	67.322	-18.9324
395.000000	67.245	-18.3484
400.000000	67.198	-17.9891
406.000000	67.145	-17.5432
412.000000	67.091	-17.0991
418.000000	67.037	-16.6504
425.000000	66.978	-16.1113
431.000000	66.928	-15.6483
437.000000	66.879	-15.1856
444.000000	66.823	-14.6449
450.000000	66.777	-14.1755
455.000000	66.740	-13.7877
462.000000	66.690	-13.2206
468.000000	66.650	-12.7278
475.000000	66.603	-12.1749
482.000000	66.557	-11.6140
487.000000	66.525	-11.2131
494.000000	66.483	-10.6490
500.000000	66.450	-10.1614
508.000000	66.406	-9.5077
515.000000	66.369	-8.9359
522.000000	66.335	-8.3587
530.000000	66.299	-7.6840
538.000000	66.264	-7.0114
545.000000	66.237	-6.4321
552.000000	66.209	-5.8541
560.000000	66.180	-5.1895
570.000000	66.147	-4.3430
580.000000	66.114	-3.4965
590.000000	66.088	-2.6566
600.000000	66.064	-1.8096
608.000000	66.047	-1.1390
615.000000	66.032	-0.5543
622.000000	66.019	0.0328
630.000000	66.004	0.7105
640.000000	65.990	1.5486
650.000000	65.979	2.3879
660.000000	65.971	3.2457
670.000000	65.964	4.0942
680.000000	65.960	4.9366
690.000000	65.956	5.7758
700.000000	65.952	6.6176
710.000000	65.950	7.4738
720.000000	65.949	8.3678
730.000000	65.957	9.3046
740.000000	65.975	10.2456
750.000000	66.002	11.1575
762.000000	66.040	12.1675
775.000000	66.081	13.2281
788.000000	66.121	14.2855
800.000000	66.159	15.2340
812.000000	66.197	16.1750
825.000000	66.238	17.1881
838.000000	66.279	18.1904
850.000000	66.320	19.1035
862.000000	66.366	20.0046
875.000000	66.416	20.9583
885.000000	66.456	21.6817
900.000000	66.519	22.7469
912.000000	66.573	23.5789
925.000000	66.634	24.4790
938.000000	66.697	25.3544
950.000000	66.758	26.1537
962.000000	66.822	26.9364
975.000000	66.894	27.7640
988.000000	66.967	28.5840
1000.000000	67.039	29.3286
1015.000000	67.139	30.2286
1030.000000	67.245	31.1000
1044.000000	67.349	31.8993
1060.000000	67.467	32.7817
1075.000000	67.581	33.5754
1090.000000	67.697	34.3329
1106.000000	67.822	35.1178
1120.000000	67.930	35.7797
1138.000000	68.073	36.5957
1150.000000	68.167	37.1236
1172.000000	68.337	38.0333
1180.000000	68.399	38.3540
1206.000000	68.601	39.3744
1220.000000	68.707	39.9024
1241.000000	68.866	40.6661
1250.000000	68.929	40.9857
1265.000000	69.022	41.5045
1280.000000	69.108	42.0190
1315.000000	69.305	43.1964
1320.000000	69.333	43.3608
1340.000000	69.447	44.0053
1360.000000	69.560	44.6461
1380.000000	69.674	45.2722
1400.000000	69.788	45.8829
1430.000000	69.961	46.7905
1450.000000	70.077	47.3782
1475.000000	70.226	48.1004
1500.000000	70.377	48.7969
1525.000000	70.532	49.4786
1550.000000	70.691	50.1416
1575.000000	70.852	50.7770
1600.000000	71.024	51.3840
1625.000000	71.222	51.9521
1650.000000	71.433	52.4927
1675.000000	71.647	52.9929
1700.000000	71.864	53.4549
1725.000000	72.084	53.8702
1750.000000	72.307	54.2388
1775.000000	72.533	54.5553
1800.000000	72.762	54.8134
1825.000000	72.991	55.0108
1850.000000	73.223	55.1460
1875.000000	73.455	55.2096
1900.000000	73.688	55.1994
1925.000000	73.921	55.1178
1950.000000	74.151	54.9490
1975.000000	74.379	54.6931
2000.000000	74.602	54.3437
2030.000000	74.858	53.8004
2060.000000	75.103	53.1135
2090.000000	75.338	52.2790
2120.000000	75.561	51.2941
2140.000000	75.703	50.5509
2180.000000	75.970	48.8647
2200.000000	76.093	47.9232
2240.000000	76.323	45.8479
2270.000000	76.480	44.1393
2300.000000	76.623	42.3090
2330.000000	76.752	40.3788
2360.000000	76.866	38.3662
2400.000000	76.989	35.6008
2430.000000	77.058	33.5050
2470.000000	77.119	30.7303
2500.000000	77.141	28.6991
2540.000000	77.137	26.1003
2580.000000	77.104	23.6667
2620.000000	77.045	21.4285
2650.000000	76.988	19.8934
2690.000000	76.897	18.0432
2720.000000	76.823	16.8074
2760.000000	76.715	15.3586
2800.000000	76.604	14.1265
2850.000000	76.466	12.8602
2900.000000	76.332	11.8730
2950.000000	76.208	11.1352
3000.000000	76.098	10.6050
3040.000000	76.024	10.3064
3070.000000	75.975	10.1432
3110.000000	75.922	9.9962
3150.000000	75.881	9.9162
3200.000000	75.848	9.8894
3250.000000	75.838	9.9133
3300.000000	75.851	9.9671
3350.000000	75.887	10.0214
3400.000000	75.944	10.0557
3450.000000	76.026	10.0424
3500.000000	76.128	9.9592
3550.000000	76.253	9.7751
3600.000000	76.396	9.4593
3650.000000	76.558	8.9905
3700.000000	76.736	8.3250
3750.000000	76.927	7.4255
3820.000000	77.211	5.7087
3870.000000	77.419	4.0947
3950.000000	77.744	0.7339
4000.000000	77.929	-1.9110
4060.000000	78.113	-5.6622
4120.000000	78.241	-10.0305
4180.000000	78.299	-14.9354
4250.000000	78.255	-21.1063
4310.000000	78.109	-26.4867
4370.000000	77.859	-31.6444
4440.000000	77.438	-37.0502
4500.000000	76.978	-40.9813
4550.000000	76.536	-43.7139
4620.000000	75.849	-46.7164
4680.000000	75.217	-48.5815
4750.000000	74.451	-50.0209
4820.000000	73.677	-50.7784
4870.000000	73.131	-50.9670
4940.000000	72.382	-50.8085
5000.000000	71.758	-50.3350
5080.000000	70.952	-49.2953
5150.000000	70.281	-48.0741
5220.000000	69.650	-46.6096
5300.000000	68.975	-44.6873
5380.000000	68.348	-42.5386
5450.000000	67.837	-40.5162
5520.000000	67.357	-38.3656
5600.000000	66.843	-35.7737
5700.000000	66.247	-32.3229
5800.000000	65.703	-28.6362
5900.000000	65.209	-24.6382
6000.000000	64.774	-20.2101
6080.000000	64.516	-16.2232
6150.000000	64.423	-12.6312
6220.000000	64.456	-9.7378
6300.000000	64.470	-7.6717
6400.000000	64.350	-5.2003
6500.000000	64.215	-1.9689
6600.000000	64.130	1.6295
6700.000000	64.107	5.3622
6800.000000	64.139	9.1199
6900.000000	64.221	12.8806
7000.000000	64.359	16.6234
7100.000000	64.551	20.2906
7200.000000	64.804	23.8341
7300.000000	65.112	27.1985
7400.000000	65.470	30.3484
7500.000000	65.881	33.2849
7620.000000	66.448	36.4543
7750.000000	67.159	39.3278
7880.000000	67.965	41.4196
8000.000000	68.763	42.4415
8120.000000	69.534	42.3324
8250.000000	70.356	40.6283
8380.000000	71.098	37.0242
8500.000000	71.602	32.0284
8620.000000	71.828	25.9296
8750.000000	71.704	19.1327
8850.000000	71.368	14.5424
9000.000000	70.598	9.5778
9120.000000	69.878	7.4652
9250.000000	69.104	6.8628
9380.000000	68.405	7.6475
9500.000000	67.863	9.3069
9620.000000	67.435	11.6278
9750.000000	67.113	14.6610
9880.000000	66.948	18.0708
10000.000000	66.960	21.3903
10150.000000	67.247	25.5051
10300.000000	67.826	29.1955
10440.000000	68.628	31.6846
10600.000000	69.824	32.4369
10750.000000	71.089	30.0563
10900.000000	72.270	24.0139
11060.000000	73.171	13.8088
11200.000000	73.505	2.6603
11380.000000	73.189	-12.5050
11500.000000	72.518	-21.5656
11720.000000	70.608	-33.1859
11800.000000	69.803	-35.6289
12060.000000	67.221	-38.2338
12200.000000	65.983	-37.2067
12410.000000	64.401	-33.7571
12500.000000	63.820	-31.8014
12650.000000	62.967	-28.1418
12800.000000	62.270	-24.1784
13150.000000	61.261	-14.7285
13200.000000	61.188	-13.4481
13400.000000	61.070	-8.8030
13600.000000	61.245	-5.4073
13800.000000	61.690	-4.2142
14000.000000	62.298	-6.5389
14300.000000	62.793	-19.1240
14500.000000	62.128	-31.6463
14750.000000	59.968	-44.1410
15000.000000	57.136	-48.8451
15250.000000	54.407	-47.4916
15500.000000	52.042	-42.6266
15750.000000	50.060	-35.7588
16000.000000	48.449	-27.7065
16250.000000	47.369	-18.7075
16500.000000	46.740	-9.1078
16750.000000	46.445	-0.5159
17000.000000	46.223	7.5364
17250.000000	46.202	15.8076
17500.000000	46.402	23.3625
17750.000000	46.845	29.7814
18000.000000	47.446	34.1631
18250.000000	48.116	35.7450
18500.000000	48.561	33.7814
18750.000000	48.454	28.6017
19000.000000	47.566	23.0697
19250.000000	45.957	20.3739
19500.000000	44.016	21.3192
19750.000000	42.001	25.7516
