* Measurement data measured by REW V5.20.13
* Source: EXCL: Microphone (USB Sound Device        ), MICROPHONE (Master Volume), L, volume: 0.250
* Format: 256k Log Swept Sine, 1 sweep at -6.0 dBFS with no timing reference
* Dated: Sep 17, 2023 9:53:31 AM
* REW Settings:
*  C-weighting compensation: Off
*  Target level: 75.0 dB
* Note: ; 
* Measurement: n.Red f.Red Foam L
* Smoothing: None
* Frequency Step: 1/48 octave
* Start Frequency: 1.000 Hz
*
* Freq(Hz)	SPL(dB)	Phase(degrees)
1.000000	63.767	150.7432
1.015000	63.725	150.3013
1.030000	63.681	149.8621
1.044000	63.640	149.4549
1.060000	63.592	148.9931
1.075000	63.545	148.5637
1.090000	63.498	148.1382
1.106000	63.446	147.6880
1.120000	63.399	147.2923
1.138000	63.338	146.7804
1.150000	63.297	146.4377
1.172000	63.219	145.8079
1.180000	63.191	145.5788
1.206000	63.096	144.8348
1.220000	63.043	144.4358
1.241000	62.963	143.8406
1.250000	62.928	143.5872
1.265000	62.869	143.1676
1.280000	62.809	142.7520
1.315000	62.665	141.8017
1.320000	62.644	141.6685
1.340000	62.559	141.1432
1.360000	62.472	140.6310
1.380000	62.383	140.1334
1.400000	62.292	139.6520
1.430000	62.153	138.9640
1.450000	62.058	138.5302
1.475000	61.936	138.0155
1.500000	61.810	137.5054
1.525000	61.678	136.9979
1.550000	61.542	136.4982
1.575000	61.403	136.0116
1.600000	61.260	135.5432
1.625000	61.115	135.0984
1.650000	60.968	134.6823
1.675000	60.820	134.3001
1.700000	60.671	133.9572
1.725000	60.522	133.6588
1.750000	60.374	133.4100
1.775000	60.227	133.2162
1.800000	60.082	133.0824
1.825000	59.939	133.0141
1.850000	59.796	133.0112
1.875000	59.646	133.0631
1.900000	59.491	133.1674
1.925000	59.332	133.3221
1.950000	59.171	133.5253
1.975000	59.010	133.7751
2.000000	58.851	134.0695
2.030000	58.665	134.4790
2.060000	58.488	134.9466
2.090000	58.322	135.4690
2.120000	58.171	136.0429
2.140000	58.080	136.4524
2.180000	57.927	137.3315
2.200000	57.866	137.7997
2.240000	57.766	138.8981
2.270000	57.706	139.8694
2.300000	57.660	140.9375
2.330000	57.626	142.0758
2.360000	57.606	143.2578
2.400000	57.601	144.8557
2.430000	57.612	146.0361
2.470000	57.649	147.5353
2.500000	57.692	148.5694
2.540000	57.772	149.7770
2.580000	57.879	150.7506
2.620000	58.025	151.6124
2.650000	58.160	152.2040
2.690000	58.366	152.9129
2.720000	58.536	153.3801
2.760000	58.778	153.9104
2.800000	59.031	154.3274
2.850000	59.350	154.6763
2.900000	59.659	154.8187
2.950000	59.946	154.7330
3.000000	60.239	154.3759
3.040000	60.478	153.9149
3.070000	60.660	153.4824
3.110000	60.901	152.8089
3.150000	61.141	152.0464
3.200000	61.432	151.0039
3.250000	61.711	149.9051
3.300000	61.972	148.7954
3.350000	62.218	147.6094
3.400000	62.453	146.3008
3.450000	62.679	144.9007
3.500000	62.894	143.4402
3.550000	63.099	141.9501
3.600000	63.294	140.4616
3.650000	63.479	139.0058
3.700000	63.653	137.5787
3.750000	63.815	136.1213
3.820000	64.023	134.0573
3.870000	64.161	132.5895
3.950000	64.366	130.3005
4.000000	64.486	128.9340
4.060000	64.623	127.3758
4.120000	64.747	125.8626
4.180000	64.859	124.3973
4.250000	64.979	122.7649
4.310000	65.078	121.4457
4.370000	65.175	120.2132
4.440000	65.288	118.8973
4.500000	65.378	117.8667
4.550000	65.450	117.0702
4.620000	65.549	116.0415
4.680000	65.637	115.2315
4.750000	65.746	114.3596
4.820000	65.865	113.5817
4.870000	65.952	113.0994
4.940000	66.077	112.5008
5.000000	66.189	112.0353
5.080000	66.348	111.4430
5.150000	66.497	110.9200
5.220000	66.657	110.4366
5.300000	66.850	109.9276
5.380000	67.050	109.4272
5.450000	67.228	108.9652
5.520000	67.406	108.4568
5.600000	67.616	107.8435
5.700000	67.885	107.0397
5.800000	68.149	106.1912
5.900000	68.400	105.2911
6.000000	68.644	104.3217
6.080000	68.833	103.5163
6.150000	68.991	102.8073
6.220000	69.141	102.1086
6.300000	69.302	101.3136
6.400000	69.491	100.3082
6.500000	69.665	99.3252
6.600000	69.829	98.4024
6.700000	69.979	97.5381
6.800000	70.116	96.7214
6.900000	70.246	95.9622
7.000000	70.373	95.2711
7.100000	70.493	94.6543
7.200000	70.609	94.0945
7.300000	70.724	93.5712
7.400000	70.842	93.0809
7.500000	70.960	92.6388
7.620000	71.101	92.1319
7.750000	71.255	91.5653
7.880000	71.411	91.0006
8.000000	71.553	90.4643
8.120000	71.690	89.8903
8.250000	71.834	89.2315
8.380000	71.970	88.5487
8.500000	72.085	87.9018
8.620000	72.192	87.2320
8.750000	72.298	86.5068
8.850000	72.372	85.9633
9.000000	72.471	85.1569
9.120000	72.542	84.5326
9.250000	72.614	83.8907
9.380000	72.680	83.2786
9.500000	72.738	82.7322
9.620000	72.797	82.2039
9.750000	72.860	81.6532
9.880000	72.914	81.1035
10.000000	72.951	80.5915
10.150000	72.986	79.9495
10.300000	73.013	79.2865
10.440000	73.031	78.6461
10.600000	73.047	77.8971
10.750000	73.058	77.1782
10.900000	73.065	76.4467
11.060000	73.068	75.6725
11.200000	73.067	74.9973
11.380000	73.062	74.1450
11.500000	73.057	73.5911
11.720000	73.048	72.5968
11.800000	73.045	72.2420
12.060000	73.036	71.1085
12.200000	73.032	70.4999
12.410000	73.029	69.5895
12.500000	73.034	69.1975
12.650000	73.053	68.5411
12.800000	73.076	67.8863
13.150000	73.125	66.3745
13.200000	73.132	66.1635
13.400000	73.157	65.3318
13.600000	73.182	64.5258
13.800000	73.208	63.7491
14.000000	73.235	62.9946
14.300000	73.277	61.8998
14.500000	73.307	61.1853
14.750000	73.343	60.3092
15.000000	73.377	59.4529
15.250000	73.408	58.6257
15.500000	73.437	57.8332
15.750000	73.465	57.0763
16.000000	73.494	56.3511
16.250000	73.529	55.6445
16.500000	73.567	54.9498
16.750000	73.602	54.2578
17.000000	73.634	53.5695
17.250000	73.663	52.8882
17.500000	73.687	52.2188
17.750000	73.710	51.5648
18.000000	73.731	50.9239
18.250000	73.752	50.2929
18.500000	73.772	49.6631
18.750000	73.792	49.0311
19.000000	73.812	48.3941
19.250000	73.830	47.7532
19.500000	73.849	47.1111
19.750000	73.866	46.4694
20.000000	73.884	45.8292
20.299999	73.908	45.0617
20.600000	73.933	44.2950
20.900000	73.957	43.5311
21.200001	73.981	42.7760
21.400000	73.997	42.2817
21.799999	74.030	41.3173
22.000000	74.048	40.8467
22.400000	74.084	39.9221
22.700001	74.112	39.2376
23.000000	74.139	38.5606
23.299999	74.165	37.8979
23.600000	74.188	37.2557
24.000000	74.217	36.4353
24.299999	74.239	35.8416
24.700001	74.266	35.0649
25.000000	74.286	34.4861
25.400000	74.308	33.7197
25.799999	74.325	32.9685
26.200001	74.339	32.2373
26.500000	74.348	31.6968
26.900000	74.360	30.9751
27.200001	74.369	30.4274
27.600000	74.378	29.6884
28.000000	74.385	28.9462
28.500000	74.393	28.0195
29.000000	74.400	27.0889
29.500000	74.407	26.1525
30.000000	74.413	25.2258
30.400000	74.417	24.5026
30.700001	74.421	23.9717
31.100000	74.427	23.2738
31.500000	74.434	22.5819
32.000000	74.441	21.7243
32.500000	74.446	20.8846
33.000000	74.448	20.0736
33.500000	74.449	19.2902
34.000000	74.450	18.5207
34.500000	74.450	17.7504
35.000000	74.446	16.9785
35.500000	74.439	16.2182
36.000000	74.429	15.4789
36.500000	74.421	14.7515
37.000000	74.415	14.0158
37.500000	74.407	13.2655
38.200001	74.391	12.2190
38.700001	74.377	11.4981
39.500000	74.357	10.3949
40.000000	74.347	9.7239
40.599998	74.337	8.9277
41.200001	74.326	8.1396
41.799999	74.313	7.3647
42.500000	74.295	6.4878
43.099998	74.278	5.7646
43.700001	74.261	5.0612
44.400002	74.243	4.2434
45.000000	74.226	3.5361
45.500000	74.208	2.9572
46.200001	74.182	2.1852
46.799999	74.163	1.5453
47.500000	74.141	0.7926
48.200001	74.115	0.0525
48.700001	74.095	-0.4513
49.400002	74.070	-1.1355
50.000000	74.049	-1.7229
50.799999	74.018	-2.4938
51.500000	73.990	-3.1360
52.200001	73.963	-3.7626
53.000000	73.931	-4.4699
53.799999	73.897	-5.1444
54.500000	73.869	-5.7150
55.200001	73.841	-6.2830
56.000000	73.807	-6.9101
57.000000	73.764	-7.6724
58.000000	73.715	-8.4113
59.000000	73.668	-9.0770
60.000000	73.628	-9.7746
60.799999	73.589	-10.3312
61.500000	73.554	-10.7831
62.200001	73.522	-11.2211
63.000000	73.485	-11.7128
64.000000	73.438	-12.3064
65.000000	73.389	-12.8890
66.000000	73.338	-13.4454
67.000000	73.286	-13.9800
68.000000	73.234	-14.5038
69.000000	73.181	-15.0104
70.000000	73.128	-15.5003
71.000000	73.075	-15.9601
72.000000	73.025	-16.4134
73.000000	72.975	-16.8474
74.000000	72.927	-17.2838
75.000000	72.874	-17.7185
76.199997	72.807	-18.1930
77.500000	72.740	-18.6541
78.800003	72.676	-19.1525
80.000000	72.608	-19.5809
81.199997	72.547	-19.9666
82.500000	72.480	-20.3991
83.800003	72.413	-20.8037
85.000000	72.354	-21.1627
86.199997	72.295	-21.5200
87.500000	72.229	-21.8939
88.500000	72.177	-22.1453
90.000000	72.104	-22.5264
91.199997	72.042	-22.8022
92.500000	71.979	-23.1197
93.800003	71.912	-23.4138
95.000000	71.852	-23.6815
96.199997	71.793	-23.9260
97.500000	71.730	-24.2065
98.800003	71.666	-24.4549
100.000000	71.608	-24.6765
101.500000	71.539	-24.9428
103.000000	71.466	-25.1956
104.400002	71.403	-25.4143
106.000000	71.325	-25.6382
107.500000	71.260	-25.8435
109.000000	71.191	-26.0684
110.599998	71.118	-26.2767
112.000000	71.053	-26.4693
113.800003	70.972	-26.6719
115.000000	70.920	-26.8012
117.199997	70.826	-27.0432
118.000000	70.791	-27.1275
120.599998	70.680	-27.3453
122.000000	70.619	-27.4648
124.099998	70.531	-27.6270
125.000000	70.493	-27.6912
126.500000	70.437	-27.7844
128.000000	70.381	-27.8698
131.500000	70.256	-28.0492
132.000000	70.237	-28.0780
134.000000	70.163	-28.1918
136.000000	70.093	-28.2856
138.000000	70.023	-28.3759
140.000000	69.959	-28.4273
143.000000	69.857	-28.5025
145.000000	69.790	-28.5545
147.500000	69.708	-28.5926
150.000000	69.626	-28.6306
152.500000	69.546	-28.6198
155.000000	69.472	-28.6127
157.500000	69.396	-28.6175
160.000000	69.319	-28.6062
162.500000	69.229	-28.5953
165.000000	69.144	-28.5657
167.500000	69.063	-28.5158
170.000000	68.984	-28.4343
172.500000	68.898	-28.3996
175.000000	68.815	-28.3315
177.500000	68.734	-28.2697
180.000000	68.657	-28.1716
182.500000	68.582	-28.0551
185.000000	68.507	-27.9578
187.500000	68.433	-27.8557
190.000000	68.358	-27.7916
192.500000	68.288	-27.6935
195.000000	68.220	-27.5545
197.500000	68.148	-27.4118
200.000000	68.080	-27.2718
203.000000	68.006	-27.1269
206.000000	67.932	-26.9969
209.000000	67.863	-26.8095
212.000000	67.793	-26.6059
214.000000	67.748	-26.4590
218.000000	67.658	-26.2072
220.000000	67.613	-26.0860
224.000000	67.531	-25.8544
227.000000	67.469	-25.6582
230.000000	67.409	-25.4346
233.000000	67.345	-25.2127
236.000000	67.285	-25.0096
240.000000	67.211	-24.7308
243.000000	67.156	-24.4898
247.000000	67.087	-24.1762
250.000000	67.027	-23.9461
254.000000	66.959	-23.6540
258.000000	66.889	-23.3672
262.000000	66.826	-23.0263
265.000000	66.782	-22.7678
269.000000	66.717	-22.4285
272.000000	66.669	-22.1717
276.000000	66.610	-21.8643
280.000000	66.548	-21.5234
285.000000	66.480	-21.0962
290.000000	66.414	-20.6676
295.000000	66.350	-20.2450
300.000000	66.287	-19.8038
304.000000	66.238	-19.4674
307.000000	66.198	-19.1778
311.000000	66.154	-18.8491
315.000000	66.108	-18.4788
320.000000	66.056	-18.0392
325.000000	65.998	-17.5586
330.000000	65.940	-17.1262
335.000000	65.889	-16.6856
340.000000	65.840	-16.2101
345.000000	65.796	-15.7478
350.000000	65.749	-15.3146
355.000000	65.701	-14.8437
360.000000	65.656	-14.4245
365.000000	65.621	-13.9481
370.000000	65.580	-13.4677
375.000000	65.543	-13.0187
382.000000	65.488	-12.3579
387.000000	65.453	-11.9210
395.000000	65.401	-11.1716
400.000000	65.361	-10.7217
406.000000	65.330	-10.1531
412.000000	65.291	-9.6138
418.000000	65.259	-9.0308
425.000000	65.219	-8.4328
431.000000	65.196	-7.8542
437.000000	65.160	-7.3364
444.000000	65.130	-6.6896
450.000000	65.104	-6.1395
455.000000	65.085	-5.6831
462.000000	65.054	-5.0469
468.000000	65.028	-4.5187
475.000000	65.006	-3.8676
482.000000	64.984	-3.2616
487.000000	64.967	-2.8116
494.000000	64.947	-2.1461
500.000000	64.931	-1.6028
508.000000	64.914	-0.8798
515.000000	64.899	-0.3301
522.000000	64.884	0.3321
530.000000	64.872	1.0171
538.000000	64.861	1.7311
545.000000	64.851	2.3776
552.000000	64.841	3.0115
560.000000	64.838	3.6753
570.000000	64.840	4.5503
580.000000	64.819	5.4348
590.000000	64.821	6.3807
600.000000	64.819	7.1922
608.000000	64.818	7.9226
615.000000	64.823	8.5136
622.000000	64.826	9.1422
630.000000	64.833	9.8335
640.000000	64.846	10.6623
650.000000	64.855	11.5303
660.000000	64.865	12.3829
670.000000	64.884	13.2431
680.000000	64.901	14.1412
690.000000	64.920	15.0001
700.000000	64.942	15.8538
710.000000	64.967	16.6835
720.000000	64.994	17.5492
730.000000	65.019	18.3745
740.000000	65.049	19.2740
750.000000	65.080	20.1297
762.000000	65.120	21.1139
775.000000	65.163	22.2009
788.000000	65.207	23.3823
800.000000	65.250	24.4837
812.000000	65.286	25.5689
825.000000	65.341	26.7742
838.000000	65.416	28.0742
850.000000	65.503	29.1593
862.000000	65.603	30.1353
875.000000	65.713	30.9983
885.000000	65.793	31.6036
900.000000	65.899	32.5569
912.000000	65.983	33.3551
925.000000	66.079	34.2697
938.000000	66.176	35.1394
950.000000	66.261	35.9382
962.000000	66.351	36.7069
975.000000	66.451	37.5268
988.000000	66.555	38.2865
1000.000000	66.649	38.9533
1015.000000	66.797	39.6997
1030.000000	66.939	40.5042
1044.000000	67.068	41.1675
1060.000000	67.211	41.9126
1075.000000	67.353	42.5791
1090.000000	67.497	43.1889
1106.000000	67.645	43.8166
1120.000000	67.777	44.3581
1138.000000	67.938	44.9915
1150.000000	68.046	45.4365
1172.000000	68.242	46.1825
1180.000000	68.316	46.4401
1206.000000	68.546	47.2429
1220.000000	68.665	47.6019
1241.000000	68.841	48.2354
1250.000000	68.914	48.4935
1265.000000	69.012	48.9118
1280.000000	69.109	49.2733
1315.000000	69.337	50.1802
1320.000000	69.367	50.3110
1340.000000	69.492	50.8062
1360.000000	69.623	51.3123
1380.000000	69.757	51.8079
1400.000000	69.894	52.2567
1430.000000	70.100	52.9184
1450.000000	70.236	53.2932
1475.000000	70.408	53.7762
1500.000000	70.585	54.2083
1525.000000	70.767	54.5830
1550.000000	70.946	54.9226
1575.000000	71.134	55.2062
1600.000000	71.316	55.4213
1625.000000	71.538	55.5771
1650.000000	71.762	55.7075
1675.000000	71.986	55.7119
1700.000000	72.208	55.6431
1725.000000	72.430	55.5123
1750.000000	72.644	55.2785
1775.000000	72.856	54.9730
1800.000000	73.062	54.5463
1825.000000	73.266	54.0201
1850.000000	73.452	53.3941
1875.000000	73.632	52.6714
1900.000000	73.804	51.8262
1925.000000	73.972	50.9033
1950.000000	74.128	49.8773
1975.000000	74.278	48.7348
2000.000000	74.416	47.5717
2030.000000	74.564	45.9285
2060.000000	74.698	44.2659
2090.000000	74.819	42.4985
2120.000000	74.925	40.6615
2140.000000	74.986	39.4061
2180.000000	75.079	36.9094
2200.000000	75.114	35.6263
2240.000000	75.157	33.1651
2270.000000	75.167	31.3546
2300.000000	75.159	29.6134
2330.000000	75.139	27.9721
2360.000000	75.104	26.4419
2400.000000	75.041	24.5181
2430.000000	74.979	23.2054
2470.000000	74.891	21.6340
2500.000000	74.817	20.5542
2540.000000	74.710	19.3123
2580.000000	74.610	18.2648
2620.000000	74.504	17.3654
2650.000000	74.425	16.8017
2690.000000	74.323	16.1491
2720.000000	74.248	15.7462
2760.000000	74.150	15.3212
2800.000000	74.058	14.9389
2850.000000	73.942	14.6395
2900.000000	73.816	14.5168
2950.000000	73.697	14.5710
3000.000000	73.589	14.8975
3040.000000	73.497	15.4149
3070.000000	73.436	15.9902
3110.000000	73.378	17.0057
3150.000000	73.361	18.4317
3200.000000	73.438	20.5565
3250.000000	73.667	22.7942
3300.000000	74.045	24.6999
3350.000000	74.545	25.6593
3400.000000	75.094	25.3223
3450.000000	75.619	23.6048
3500.000000	76.066	20.6288
3550.000000	76.408	16.6530
3600.000000	76.643	11.9756
3650.000000	76.771	6.8271
3700.000000	76.801	1.4044
3750.000000	76.741	-4.0270
3820.000000	76.527	-11.1666
3870.000000	76.289	-15.7018
3950.000000	75.774	-21.6950
4000.000000	75.367	-24.6630
4060.000000	74.836	-27.4664
4120.000000	74.256	-29.5460
4180.000000	73.657	-30.9452
4250.000000	72.964	-31.8365
4310.000000	72.393	-32.0021
4370.000000	71.871	-31.8090
4440.000000	71.314	-31.1716
4500.000000	70.908	-30.5720
4550.000000	70.609	-30.1091
4620.000000	70.242	-29.5704
4680.000000	69.979	-29.3292
4750.000000	69.712	-29.4920
4820.000000	69.451	-30.3967
4870.000000	69.207	-31.5514
4940.000000	68.719	-33.5675
5000.000000	68.113	-35.1169
5080.000000	67.065	-35.8595
5150.000000	66.070	-34.5495
5220.000000	65.128	-31.7980
5300.000000	64.233	-27.5474
5380.000000	63.510	-23.0245
5450.000000	63.012	-18.7770
5520.000000	62.592	-14.6501
5600.000000	62.196	-10.0057
5700.000000	61.798	-4.3531
5800.000000	61.466	1.1555
5900.000000	61.207	6.8088
6000.000000	61.035	12.8150
6080.000000	61.106	18.6544
6150.000000	61.375	21.4626
6220.000000	61.406	23.7667
6300.000000	61.417	27.1307
6400.000000	61.595	31.7396
6500.000000	61.867	36.2527
6600.000000	62.244	40.8928
6700.000000	62.690	45.2543
6800.000000	63.223	49.3061
6900.000000	63.837	53.1872
7000.000000	64.568	56.7272
7100.000000	65.423	60.0412
7200.000000	66.401	62.7642
7300.000000	67.537	64.6249
7400.000000	68.811	65.3422
7500.000000	70.229	64.5295
7620.000000	72.063	60.4915
7750.000000	73.969	50.6356
7880.000000	75.157	34.4390
8000.000000	75.219	17.3589
8120.000000	74.439	3.6623
8250.000000	73.337	-5.7374
8380.000000	72.375	-11.2925
8500.000000	71.711	-14.9990
8620.000000	71.314	-18.4351
8750.000000	71.078	-23.1148
8850.000000	70.986	-28.0563
9000.000000	70.758	-38.3308
9120.000000	70.234	-48.7099
9250.000000	69.124	-60.3819
9380.000000	67.511	-70.1609
9500.000000	65.792	-76.7363
9620.000000	64.035	-81.0579
9750.000000	62.211	-83.7687
9880.000000	60.510	-85.1454
10000.000000	59.064	-85.5424
10150.000000	57.530	-85.6287
10300.000000	56.110	-85.7028
10440.000000	54.837	-86.0812
10600.000000	53.470	-87.2919
10750.000000	52.064	-89.9035
10900.000000	50.547	-93.1198
11060.000000	48.656	-98.7882
11200.000000	46.539	-105.6700
11380.000000	42.920	-119.9260
11500.000000	39.635	-137.3692
11720.000000	36.068	151.4172
11800.000000	37.562	126.2968
12060.000000	42.803	85.8391
12200.000000	44.563	77.9412
12410.000000	46.324	70.5156
12500.000000	46.865	70.1637
12650.000000	47.871	68.5458
12800.000000	48.892	68.7537
13150.000000	52.099	65.7681
13200.000000	52.642	64.0865
13400.000000	54.876	53.7789
13600.000000	55.962	34.4741
13800.000000	55.159	16.1078
14000.000000	53.458	5.9327
14300.000000	51.153	3.5022
14500.000000	49.998	5.8976
14750.000000	49.049	11.5331
15000.000000	48.783	18.6263
15250.000000	48.892	26.2098
15500.000000	49.628	34.9139
15750.000000	51.184	39.2792
16000.000000	53.258	38.5738
16250.000000	55.711	32.0141
16500.000000	57.515	17.6968
16750.000000	57.583	-0.0764
17000.000000	56.421	-9.8126
17250.000000	55.342	-12.6481
17500.000000	54.636	-11.2260
17750.000000	54.436	-9.4609
18000.000000	54.705	-8.2927
18250.000000	55.031	-8.4262
18500.000000	55.384	-12.2869
18750.000000	55.237	-18.2982
19000.000000	54.536	-22.7481
19250.000000	53.622	-25.4674
19500.000000	53.066	-26.0745
19750.000000	52.738	-29.5352
