* Measurement data measured by REW V5.20.13
* Source: EXCL: Microphone (USB Sound Device        ), MICROPHONE (Master Volume), R, volume: 0.250
* Format: 256k Log Swept Sine, 1 sweep at -6.0 dBFS with no timing reference
* Dated: Sep 17, 2023 12:43:08 PM
* REW Settings:
*  C-weighting compensation: Off
*  Target level: 75.0 dB
* Note: ; 
* Measurement: n.Black f.Blue Foam R
* Smoothing: None
* Frequency Step: 1/48 octave
* Start Frequency: 1.000 Hz
*
* Freq(Hz)	SPL(dB)	Phase(degrees)
1.000000	65.855	-110.6989
1.015000	65.777	-112.7218
1.030000	65.701	-114.7530
1.044000	65.633	-116.6559
1.060000	65.558	-118.8386
1.075000	65.490	-120.8922
1.090000	65.426	-122.9523
1.106000	65.361	-125.1594
1.120000	65.307	-127.1139
1.138000	65.238	-129.6601
1.150000	65.193	-131.3764
1.172000	65.114	-134.5572
1.180000	65.086	-135.7236
1.206000	64.998	-139.5443
1.220000	64.952	-141.6171
1.241000	64.886	-144.7412
1.250000	64.859	-146.0840
1.265000	64.815	-148.3254
1.280000	64.772	-150.5688
1.315000	64.679	-155.7967
1.320000	64.667	-156.5415
1.340000	64.618	-159.5114
1.360000	64.573	-162.4625
1.380000	64.530	-165.3888
1.400000	64.491	-168.2843
1.430000	64.438	-172.5569
1.450000	64.406	-175.3495
1.475000	64.372	-178.7737
1.500000	64.348	177.8249
1.525000	64.334	174.4371
1.550000	64.329	171.0679
1.575000	64.330	167.7222
1.600000	64.338	164.4048
1.625000	64.349	161.1209
1.650000	64.362	157.8752
1.675000	64.376	154.6726
1.700000	64.389	151.5181
1.725000	64.399	148.4167
1.750000	64.405	145.3731
1.775000	64.405	142.3924
1.800000	64.399	139.4794
1.825000	64.383	136.6391
1.850000	64.361	133.8683
1.875000	64.341	131.1506
1.900000	64.322	128.4857
1.925000	64.303	125.8744
1.950000	64.282	123.3171
1.975000	64.259	120.8145
2.000000	64.231	118.3672
2.030000	64.190	115.5044
2.060000	64.138	112.7230
2.090000	64.073	110.0242
2.120000	63.993	107.4090
2.140000	63.930	105.7125
2.180000	63.776	102.4337
2.200000	63.685	100.8513
2.240000	63.488	97.6634
2.270000	63.330	95.2486
2.300000	63.161	92.8550
2.330000	62.979	90.5203
2.360000	62.783	88.2821
2.400000	62.493	85.5128
2.430000	62.254	83.6459
2.470000	61.900	81.5082
2.500000	61.606	80.2173
2.540000	61.173	78.9841
2.580000	60.676	78.3590
2.620000	60.027	78.1395
2.650000	59.454	78.2187
2.690000	58.617	78.6719
2.720000	57.965	79.2878
2.760000	57.103	80.4993
2.800000	56.300	82.1824
2.850000	55.458	84.9922
2.900000	54.893	88.6371
2.950000	54.699	93.3067
3.000000	54.836	99.9965
3.040000	55.133	106.5276
3.070000	55.444	111.8550
3.110000	55.949	119.2138
3.150000	56.527	126.5031
3.200000	57.301	134.9159
3.250000	58.073	141.8329
3.300000	58.780	146.4872
3.350000	59.502	148.9095
3.400000	60.304	149.7349
3.450000	61.150	149.3344
3.500000	62.005	148.0795
3.550000	62.834	146.3415
3.600000	63.602	144.4916
3.650000	64.272	142.9011
3.700000	64.832	141.6030
3.750000	65.320	140.0138
3.820000	65.903	137.4013
3.870000	66.261	135.3693
3.950000	66.758	132.0562
4.000000	67.036	130.0739
4.060000	67.345	127.8653
4.120000	67.602	125.6440
4.180000	67.809	123.4171
4.250000	67.999	120.8761
4.310000	68.128	118.8021
4.370000	68.235	116.8749
4.440000	68.332	114.8297
4.500000	68.374	113.1721
4.550000	68.386	111.8724
4.620000	68.377	110.2118
4.680000	68.356	108.9675
4.750000	68.330	107.7659
4.820000	68.295	106.8634
4.870000	68.251	106.3881
4.940000	68.179	105.9307
5.000000	68.119	105.7069
5.080000	68.063	105.6078
5.150000	68.055	105.6835
5.220000	68.069	106.0475
5.300000	68.108	106.7362
5.380000	68.178	107.5311
5.450000	68.268	108.1620
5.520000	68.392	108.6221
5.600000	68.585	109.1136
5.700000	68.879	109.6494
5.800000	69.195	109.9373
5.900000	69.500	109.8146
6.000000	69.822	109.2871
6.080000	70.082	108.6498
6.150000	70.299	107.9826
6.220000	70.495	107.2525
6.300000	70.695	106.3033
6.400000	70.921	104.8997
6.500000	71.116	103.3971
6.600000	71.279	101.9480
6.700000	71.403	100.5178
6.800000	71.494	99.0821
6.900000	71.562	97.7381
7.000000	71.618	96.5708
7.100000	71.649	95.5438
7.200000	71.665	94.6445
7.300000	71.684	93.8782
7.400000	71.713	93.2698
7.500000	71.741	92.8282
7.620000	71.787	92.4110
7.750000	71.866	91.9826
7.880000	71.974	91.6517
8.000000	72.091	91.3257
8.120000	72.220	90.8647
8.250000	72.378	90.2606
8.380000	72.538	89.5459
8.500000	72.673	88.7635
8.620000	72.804	87.8577
8.750000	72.933	86.8174
8.850000	73.016	86.0130
9.000000	73.119	84.7493
9.120000	73.187	83.7646
9.250000	73.246	82.7828
9.380000	73.289	81.8581
9.500000	73.324	81.0745
9.620000	73.361	80.3785
9.750000	73.399	79.7108
9.880000	73.432	79.0912
10.000000	73.457	78.5577
10.150000	73.483	77.9418
10.300000	73.509	77.3077
10.440000	73.535	76.6992
10.600000	73.563	75.9789
10.750000	73.588	75.2579
10.900000	73.609	74.5078
11.060000	73.624	73.7090
11.200000	73.629	73.0042
11.380000	73.628	72.1311
11.500000	73.623	71.5798
11.720000	73.609	70.6216
11.800000	73.604	70.2934
12.060000	73.587	69.2835
12.200000	73.579	68.7509
12.410000	73.570	67.9639
12.500000	73.573	67.6203
12.650000	73.587	67.0397
12.800000	73.602	66.4570
13.150000	73.624	65.1004
13.200000	73.626	64.9135
13.400000	73.629	64.1852
13.600000	73.632	63.4938
13.800000	73.635	62.8471
14.000000	73.642	62.2153
14.300000	73.661	61.2752
14.500000	73.678	60.6176
14.750000	73.697	59.7592
15.000000	73.712	58.8653
15.250000	73.717	57.9759
15.500000	73.718	57.1260
15.750000	73.717	56.3300
16.000000	73.723	55.5917
16.250000	73.741	54.8748
16.500000	73.770	54.1591
16.750000	73.802	53.4143
17.000000	73.834	52.6439
17.250000	73.863	51.8624
17.500000	73.886	51.0923
17.750000	73.907	50.3608
18.000000	73.927	49.6686
18.250000	73.950	49.0156
18.500000	73.976	48.3793
18.750000	74.004	47.7495
19.000000	74.034	47.1167
19.250000	74.061	46.4846
19.500000	74.087	45.8626
19.750000	74.110	45.2570
20.000000	74.133	44.6730
20.299999	74.161	43.9907
20.600000	74.190	43.3181
20.900000	74.218	42.6459
21.200001	74.241	41.9762
21.400000	74.255	41.5383
21.799999	74.279	40.6907
22.000000	74.291	40.2798
22.400000	74.316	39.4677
22.700001	74.335	38.8478
23.000000	74.353	38.2105
23.299999	74.367	37.5670
23.600000	74.377	36.9323
24.000000	74.388	36.1154
24.299999	74.397	35.5200
24.700001	74.413	34.7250
25.000000	74.426	34.1147
25.400000	74.441	33.2858
25.799999	74.453	32.4662
26.200001	74.462	31.6756
26.500000	74.471	31.0978
26.900000	74.484	30.3323
27.200001	74.494	29.7555
27.600000	74.506	28.9872
28.000000	74.515	28.2333
28.500000	74.525	27.3168
29.000000	74.535	26.4142
29.500000	74.542	25.5201
30.000000	74.546	24.6456
30.400000	74.549	23.9578
30.700001	74.552	23.4413
31.100000	74.554	22.7462
31.500000	74.554	22.0500
32.000000	74.550	21.1967
32.500000	74.546	20.3640
33.000000	74.543	19.5316
33.500000	74.540	18.6919
34.000000	74.534	17.8621
34.500000	74.528	17.0531
35.000000	74.523	16.2554
35.500000	74.518	15.4614
36.000000	74.511	14.6785
36.500000	74.504	13.9109
37.000000	74.496	13.1525
37.500000	74.487	12.4028
38.200001	74.472	11.3841
38.700001	74.461	10.6737
39.500000	74.443	9.5376
40.000000	74.429	8.8386
40.599998	74.413	8.0220
41.200001	74.398	7.2142
41.799999	74.382	6.4123
42.500000	74.361	5.5023
43.099998	74.343	4.7419
43.700001	74.325	3.9941
44.400002	74.303	3.1445
45.000000	74.284	2.4304
45.500000	74.268	1.8409
46.200001	74.242	1.0364
46.799999	74.221	0.3683
47.500000	74.195	-0.4011
48.200001	74.167	-1.1492
48.700001	74.147	-1.6650
49.400002	74.120	-2.3772
50.000000	74.097	-2.9827
50.799999	74.064	-3.7652
51.500000	74.036	-4.4250
52.200001	74.007	-5.0670
53.000000	73.974	-5.7856
53.799999	73.940	-6.4874
54.500000	73.909	-7.0766
55.200001	73.878	-7.6541
56.000000	73.842	-8.3032
57.000000	73.796	-9.0766
58.000000	73.750	-9.8302
59.000000	73.703	-10.5493
60.000000	73.656	-11.2400
60.799999	73.618	-11.7767
61.500000	73.585	-12.2333
62.200001	73.551	-12.6772
63.000000	73.512	-13.1733
64.000000	73.459	-13.7750
65.000000	73.408	-14.3515
66.000000	73.355	-14.9216
67.000000	73.301	-15.4563
68.000000	73.249	-15.9689
69.000000	73.197	-16.4706
70.000000	73.144	-16.9630
71.000000	73.089	-17.4312
72.000000	73.036	-17.8774
73.000000	72.983	-18.3192
74.000000	72.928	-18.7467
75.000000	72.875	-19.1469
76.199997	72.811	-19.6350
77.500000	72.739	-20.1202
78.800003	72.670	-20.5897
80.000000	72.605	-21.0037
81.199997	72.542	-21.4062
82.500000	72.473	-21.8247
83.800003	72.405	-22.2262
85.000000	72.342	-22.5710
86.199997	72.280	-22.9164
87.500000	72.210	-23.2725
88.500000	72.159	-23.5272
90.000000	72.081	-23.9206
91.199997	72.020	-24.2003
92.500000	71.955	-24.5101
93.800003	71.888	-24.7998
95.000000	71.828	-25.0542
96.199997	71.766	-25.3116
97.500000	71.700	-25.5525
98.800003	71.636	-25.8021
100.000000	71.576	-26.0197
101.500000	71.502	-26.2758
103.000000	71.429	-26.5198
104.400002	71.362	-26.7297
106.000000	71.285	-26.9731
107.500000	71.214	-27.1838
109.000000	71.141	-27.3835
110.599998	71.067	-27.5760
112.000000	71.002	-27.7495
113.800003	70.920	-27.9510
115.000000	70.865	-28.0840
117.199997	70.766	-28.2888
118.000000	70.731	-28.3660
120.599998	70.616	-28.5979
122.000000	70.553	-28.7144
124.099998	70.463	-28.8596
125.000000	70.426	-28.9291
126.500000	70.366	-29.0213
128.000000	70.308	-29.1113
131.500000	70.175	-29.2860
132.000000	70.157	-29.3081
134.000000	70.084	-29.3966
136.000000	70.012	-29.4750
138.000000	69.940	-29.5430
140.000000	69.866	-29.6058
143.000000	69.761	-29.6647
145.000000	69.693	-29.6992
147.500000	69.609	-29.7404
150.000000	69.525	-29.7520
152.500000	69.442	-29.7521
155.000000	69.361	-29.7532
157.500000	69.279	-29.7271
160.000000	69.202	-29.7103
162.500000	69.112	-29.6842
165.000000	69.021	-29.6241
167.500000	68.934	-29.5746
170.000000	68.850	-29.5123
172.500000	68.764	-29.4384
175.000000	68.680	-29.3516
177.500000	68.597	-29.2769
180.000000	68.513	-29.1785
182.500000	68.436	-29.0848
185.000000	68.357	-28.9832
187.500000	68.284	-28.8731
190.000000	68.208	-28.7460
192.500000	68.129	-28.6153
195.000000	68.057	-28.4940
197.500000	67.984	-28.3727
200.000000	67.914	-28.2177
203.000000	67.836	-28.0553
206.000000	67.760	-27.8798
209.000000	67.685	-27.7009
212.000000	67.615	-27.4939
214.000000	67.567	-27.3605
218.000000	67.473	-27.1054
220.000000	67.427	-26.9827
224.000000	67.336	-26.6876
227.000000	67.273	-26.4655
230.000000	67.210	-26.2411
233.000000	67.145	-26.0189
236.000000	67.081	-25.7990
240.000000	67.002	-25.4847
243.000000	66.942	-25.2385
247.000000	66.863	-24.9165
250.000000	66.809	-24.6840
254.000000	66.734	-24.3568
258.000000	66.663	-24.0219
262.000000	66.594	-23.6846
265.000000	66.543	-23.4238
269.000000	66.478	-23.0652
272.000000	66.426	-22.8174
276.000000	66.366	-22.4775
280.000000	66.302	-22.1044
285.000000	66.229	-21.6454
290.000000	66.156	-21.1883
295.000000	66.088	-20.7167
300.000000	66.022	-20.2605
304.000000	65.970	-19.8975
307.000000	65.932	-19.6163
311.000000	65.882	-19.2393
315.000000	65.831	-18.8629
320.000000	65.768	-18.3860
325.000000	65.713	-17.8998
330.000000	65.659	-17.4319
335.000000	65.607	-16.9423
340.000000	65.553	-16.4664
345.000000	65.500	-15.9865
350.000000	65.450	-15.4761
355.000000	65.402	-15.0110
360.000000	65.355	-14.5315
365.000000	65.312	-14.0265
370.000000	65.276	-13.5475
375.000000	65.231	-13.0560
382.000000	65.174	-12.3740
387.000000	65.137	-11.8728
395.000000	65.081	-11.0992
400.000000	65.049	-10.6222
406.000000	65.005	-10.0380
412.000000	64.973	-9.4297
418.000000	64.934	-8.8676
425.000000	64.897	-8.1633
431.000000	64.864	-7.5887
437.000000	64.837	-7.0266
444.000000	64.807	-6.3539
450.000000	64.778	-5.7698
455.000000	64.759	-5.2819
462.000000	64.729	-4.6443
468.000000	64.711	-4.0532
475.000000	64.686	-3.3817
482.000000	64.665	-2.6841
487.000000	64.654	-2.2825
494.000000	64.641	-1.5709
500.000000	64.628	-1.0409
508.000000	64.623	-0.2764
515.000000	64.606	0.3363
522.000000	64.604	1.1101
530.000000	64.609	1.7276
538.000000	64.562	2.6254
545.000000	64.583	3.8075
552.000000	64.682	4.5472
560.000000	64.731	4.8082
570.000000	64.663	5.2321
580.000000	64.541	6.3018
590.000000	64.415	7.7009
600.000000	64.304	8.9694
608.000000	64.239	9.6244
615.000000	64.217	10.0021
622.000000	64.247	10.3466
630.000000	64.300	11.1167
640.000000	64.323	12.1648
650.000000	64.354	12.9891
660.000000	64.384	14.0389
670.000000	64.411	14.9116
680.000000	64.440	15.8675
690.000000	64.473	16.7704
700.000000	64.497	17.7264
710.000000	64.538	18.6259
720.000000	64.565	19.5636
730.000000	64.600	20.4589
740.000000	64.640	21.3662
750.000000	64.682	22.3155
762.000000	64.724	23.3943
775.000000	64.783	24.5519
788.000000	64.850	25.6830
800.000000	64.907	26.7670
812.000000	64.959	27.8333
825.000000	65.029	28.9547
838.000000	65.093	30.0598
850.000000	65.157	31.0623
862.000000	65.230	32.0368
875.000000	65.312	33.1076
885.000000	65.374	33.9256
900.000000	65.473	35.0849
912.000000	65.558	36.0307
925.000000	65.653	37.0010
938.000000	65.744	37.9553
950.000000	65.839	38.7789
962.000000	65.937	39.6544
975.000000	66.041	40.5095
988.000000	66.143	41.3352
1000.000000	66.253	42.1296
1015.000000	66.391	42.9893
1030.000000	66.531	43.8749
1044.000000	66.668	44.6661
1060.000000	66.823	45.4904
1075.000000	66.970	46.2575
1090.000000	67.114	46.9307
1106.000000	67.264	47.6842
1120.000000	67.396	48.2758
1138.000000	67.562	49.0408
1150.000000	67.669	49.5647
1172.000000	67.870	50.4593
1180.000000	67.944	50.8027
1206.000000	68.184	51.8580
1220.000000	68.311	52.3955
1241.000000	68.504	53.1736
1250.000000	68.585	53.4990
1265.000000	68.695	54.0612
1280.000000	68.801	54.5629
1315.000000	69.061	55.7908
1320.000000	69.101	55.9427
1340.000000	69.252	56.5977
1360.000000	69.402	57.2635
1380.000000	69.558	57.8925
1400.000000	69.723	58.4868
1430.000000	69.970	59.3774
1450.000000	70.141	59.9019
1475.000000	70.363	60.5341
1500.000000	70.608	61.0123
1525.000000	70.872	61.1002
1550.000000	71.049	60.4271
1575.000000	71.108	60.0285
1600.000000	71.140	60.0822
1625.000000	71.274	60.7078
1650.000000	71.560	61.4509
1675.000000	71.957	63.3412
1700.000000	71.928	64.4537
1725.000000	72.418	63.0914
1750.000000	72.718	64.2314
1775.000000	72.944	63.7823
1800.000000	73.225	63.6394
1825.000000	73.473	63.1487
1850.000000	73.708	62.5905
1875.000000	73.933	61.8772
1900.000000	74.152	61.0439
1925.000000	74.361	60.0471
1950.000000	74.568	58.9170
1975.000000	74.775	57.6479
2000.000000	74.977	56.1956
2030.000000	75.204	54.2965
2060.000000	75.413	52.2083
2090.000000	75.595	49.9574
2120.000000	75.747	47.6310
2140.000000	75.830	46.0066
2180.000000	75.953	42.7222
2200.000000	75.995	41.0469
2240.000000	76.041	37.7626
2270.000000	76.046	35.3441
2300.000000	76.027	33.0495
2330.000000	75.991	30.8986
2360.000000	75.940	28.9082
2400.000000	75.851	26.5399
2430.000000	75.775	24.9657
2470.000000	75.664	23.1800
2500.000000	75.577	22.0267
2540.000000	75.461	20.7712
2580.000000	75.349	19.7944
2620.000000	75.241	19.0428
2650.000000	75.168	18.6005
2690.000000	75.083	18.1464
2720.000000	75.022	17.8901
2760.000000	74.956	17.6588
2800.000000	74.906	17.5295
2850.000000	74.864	17.4767
2900.000000	74.850	17.5073
2950.000000	74.859	17.6280
3000.000000	74.909	17.7753
3040.000000	74.967	17.9381
3070.000000	75.027	18.0508
3110.000000	75.143	18.0927
3150.000000	75.265	18.1243
3200.000000	75.522	18.0895
3250.000000	75.739	17.8879
3300.000000	75.997	13.8136
3350.000000	75.844	12.6994
3400.000000	76.220	9.3463
3450.000000	76.656	7.1527
3500.000000	76.805	3.0171
3550.000000	76.842	-1.5142
3600.000000	76.812	-6.3840
3650.000000	76.707	-11.3729
3700.000000	76.531	-16.2230
3750.000000	76.287	-20.6614
3820.000000	75.823	-26.0089
3870.000000	75.416	-29.0886
3950.000000	74.662	-32.7577
4000.000000	74.152	-34.1675
4060.000000	73.510	-35.3842
4120.000000	72.876	-35.9086
4180.000000	72.261	-36.0034
4250.000000	71.590	-35.5839
4310.000000	71.070	-34.9100
4370.000000	70.608	-34.0925
4440.000000	70.165	-33.1140
4500.000000	69.851	-32.5272
4550.000000	69.636	-32.4099
4620.000000	69.355	-32.8238
4680.000000	69.101	-33.8209
4750.000000	68.756	-35.5668
4820.000000	68.300	-37.8787
4870.000000	67.867	-39.6895
4940.000000	67.071	-41.9404
5000.000000	66.226	-43.1642
5080.000000	64.955	-42.6927
5150.000000	63.847	-40.4808
5220.000000	62.833	-37.1445
5300.000000	61.778	-32.1419
5380.000000	60.917	-26.4567
5450.000000	60.275	-21.3494
5520.000000	59.753	-15.9846
5600.000000	59.248	-10.0550
5700.000000	58.802	-2.6354
5800.000000	58.438	4.2522
5900.000000	58.199	11.0725
6000.000000	58.057	17.3314
6080.000000	58.027	23.1000
6150.000000	58.034	27.6880
6220.000000	58.108	31.9113
6300.000000	58.205	36.7423
6400.000000	58.556	42.4937
6500.000000	58.937	47.6368
6600.000000	59.325	52.3613
6700.000000	59.795	57.4623
6800.000000	60.332	62.6475
6900.000000	61.012	67.1889
7000.000000	61.773	71.5725
7100.000000	62.642	75.5726
7200.000000	63.647	79.0981
7300.000000	64.777	81.8393
7400.000000	66.043	83.7969
7500.000000	67.467	84.4124
7620.000000	69.383	83.0629
7750.000000	71.559	76.9684
7880.000000	73.451	64.7723
8000.000000	74.411	48.7266
8120.000000	74.274	32.4963
8250.000000	73.503	19.3898
8380.000000	72.635	11.2062
8500.000000	71.990	6.2183
8620.000000	71.588	2.1894
8750.000000	71.391	-2.5742
8850.000000	71.374	-7.2816
9000.000000	71.361	-16.9382
9120.000000	71.121	-27.2292
9250.000000	70.379	-39.6043
9380.000000	69.067	-50.9025
9500.000000	67.532	-58.9100
9620.000000	65.878	-64.2653
9750.000000	64.132	-67.7346
9880.000000	62.520	-69.6779
10000.000000	61.170	-70.1492
10150.000000	59.706	-70.3766
10300.000000	58.431	-70.0855
10440.000000	57.352	-69.6397
10600.000000	56.260	-69.7418
10750.000000	55.246	-70.4341
10900.000000	54.228	-72.1827
11060.000000	53.021	-74.1353
11200.000000	51.824	-77.3832
11380.000000	49.919	-83.0042
11500.000000	48.055	-89.9980
11720.000000	42.661	-110.7054
11800.000000	39.447	-127.6193
12060.000000	41.243	118.9177
12200.000000	46.074	98.8058
12410.000000	51.185	85.8061
12500.000000	52.885	81.1884
12650.000000	55.614	73.6156
12800.000000	58.264	62.7767
13150.000000	61.047	17.5526
13200.000000	60.830	11.5275
13400.000000	59.438	-5.2021
13600.000000	56.831	-22.6757
13800.000000	54.987	-6.4542
14000.000000	54.791	-2.9287
14300.000000	55.025	0.8459
14500.000000	55.697	1.8890
14750.000000	56.978	-1.2705
15000.000000	58.029	-14.9984
15250.000000	57.130	-34.6068
15500.000000	54.554	-45.1682
15750.000000	51.941	-46.4294
16000.000000	49.713	-43.1604
16250.000000	48.569	-34.5919
16500.000000	47.836	-26.5874
16750.000000	47.486	-18.1161
17000.000000	47.524	-8.0958
17250.000000	48.282	-3.0184
17500.000000	49.021	0.1866
17750.000000	49.864	-1.8640
18000.000000	50.086	-7.0665
18250.000000	49.777	-14.6794
18500.000000	48.627	-21.9362
18750.000000	47.140	-27.7017
19000.000000	44.639	-31.9271
19250.000000	42.191	-37.3699
19500.000000	39.082	-43.1157
19750.000000	35.382	-65.9915
