* Measurement data measured by REW V5.20.13
* Source: C:\Users\marcu\OneDrive\Desktop\Fix\ n.Green f.Gold Foam R.txt
* Format: Comma/Tab/Space delimited data
* Dated: Jul 25, 2023 10:07:02 PM
* REW Settings:
*  C-weighting compensation: Off
*  Target level: 75.0 dB
* Note: ; Measurement imported from C:\Users\marcu\OneDrive\Desktop\Fix\ n.Green f.Gold Foam R.txt Format: Comma/Tab/Space delimited data 54613 values loaded, 0 Hz to 20,000 Hz 
* Measurement:  n.Green f.Gold Foam R
* Smoothing: None
* Frequency Step: 1/48 octave
* Start Frequency: 1.000 Hz
*
* Freq(Hz)	SPL(dB)	Phase(degrees)
1.000000	82.921	-59.5231
1.015000	82.750	-60.4209
1.030000	82.572	-61.3197
1.044000	82.400	-62.1596
1.060000	82.197	-63.1208
1.075000	81.999	-64.0232
1.090000	81.794	-64.9271
1.106000	81.571	-65.9453
1.120000	81.396	-67.1641
1.138000	81.202	-69.1965
1.150000	81.088	-70.7994
1.172000	80.904	-74.1483
1.180000	80.842	-75.4703
1.206000	80.650	-80.0176
1.220000	80.547	-82.5521
1.241000	80.383	-86.3454
1.250000	80.307	-87.9359
1.265000	80.168	-90.4960
1.280000	80.011	-92.8952
1.315000	79.548	-97.5602
1.320000	79.468	-98.0902
1.340000	79.110	-99.7881
1.360000	78.681	-100.7133
1.380000	78.170	-100.7360
1.400000	77.566	-99.7264
1.430000	76.465	-95.9925
1.450000	75.585	-91.8343
1.475000	74.280	-84.4081
1.500000	72.560	-73.4552
1.525000	70.450	-59.2457
1.550000	68.030	-42.3609
1.575000	65.378	-23.3821
1.600000	62.575	-2.8909
1.625000	59.698	18.5316
1.650000	56.829	40.3039
1.675000	54.046	61.8448
1.700000	51.429	82.5729
1.725000	49.056	101.9068
1.750000	47.008	119.2651
1.775000	45.363	134.0666
1.800000	44.202	145.7298
1.825000	43.603	153.6736
1.850000	43.634	157.6357
1.875000	44.269	158.3029
1.900000	45.426	156.1026
1.925000	47.027	151.4395
1.950000	48.991	144.7182
1.975000	51.238	136.3432
2.000000	53.689	126.7191
2.030000	56.787	114.0910
2.060000	59.924	100.9460
2.090000	62.963	87.9830
2.120000	65.767	75.9013
2.140000	67.436	68.6815
2.180000	70.113	57.1779
2.200000	70.930	53.2984
2.240000	71.019	47.6163
2.270000	71.171	44.3952
2.300000	71.381	41.9223
2.330000	71.632	40.0689
2.360000	71.909	38.7059
2.400000	72.293	37.4283
2.430000	72.570	36.7077
2.470000	72.898	35.8184
2.500000	73.092	35.0378
2.540000	73.251	33.6003
2.580000	73.282	31.5088
2.620000	73.264	29.2581
2.650000	73.225	27.5676
2.690000	73.131	25.3214
2.720000	73.026	23.6501
2.760000	72.833	21.4507
2.800000	72.572	19.2970
2.850000	72.137	16.6902
2.900000	71.568	14.2033
2.950000	70.832	11.6353
3.000000	69.796	7.3396
3.040000	68.793	3.0456
3.070000	67.975	-0.2824
3.110000	66.844	-4.3828
3.150000	65.717	-7.5494
3.200000	64.402	-9.2828
3.250000	63.293	-7.4527
3.300000	62.499	-0.8804
3.350000	61.944	12.5739
3.400000	61.529	32.2357
3.450000	61.261	55.7097
3.500000	61.144	80.6006
3.550000	61.186	104.5133
3.600000	61.394	125.0526
3.650000	61.774	139.8231
3.700000	62.398	147.5444
3.750000	63.370	150.3132
3.820000	65.113	148.2379
3.870000	66.474	144.1017
3.950000	68.539	136.1408
4.000000	69.580	132.1579
4.060000	70.435	129.6994
4.120000	71.025	127.4995
4.180000	71.426	125.2081
4.250000	71.718	122.5499
4.310000	71.871	120.3963
4.370000	71.983	118.4615
4.440000	72.085	116.4927
4.500000	72.079	114.8520
4.550000	72.016	113.5781
4.620000	71.861	112.0612
4.680000	71.684	111.1238
4.750000	71.452	110.6028
4.820000	71.165	110.7376
4.870000	70.894	111.1488
4.940000	70.471	112.1608
5.000000	70.111	113.4323
5.080000	69.711	115.7065
5.150000	69.498	118.2836
5.220000	69.368	121.8738
5.300000	69.299	126.8314
5.380000	69.326	131.9541
5.450000	69.436	135.9599
5.520000	69.640	139.0498
5.600000	70.043	141.9487
5.700000	70.708	144.8383
5.800000	71.392	146.8300
5.900000	71.948	147.7972
6.000000	72.447	147.5165
6.080000	72.812	146.6673
6.150000	73.092	145.7020
6.220000	73.323	144.7210
6.300000	73.521	143.5162
6.400000	73.684	141.6475
6.500000	73.773	139.6586
6.600000	73.806	137.8530
6.700000	73.765	136.1841
6.800000	73.658	134.5872
6.900000	73.520	133.2110
7.000000	73.379	132.1933
7.100000	73.204	131.5183
7.200000	73.020	131.1020
7.300000	72.870	130.8682
7.400000	72.777	130.8448
7.500000	72.716	131.1100
7.620000	72.698	131.4600
7.750000	72.768	131.4724
7.880000	72.939	131.2704
8.000000	73.145	130.7709
8.120000	73.361	129.7832
8.250000	73.630	128.1859
8.380000	73.901	126.2376
8.500000	74.124	124.2254
8.620000	74.333	121.9213
8.750000	74.540	119.3374
8.850000	74.681	117.4172
9.000000	74.861	114.5051
9.120000	74.994	112.2932
9.250000	75.133	110.1373
9.380000	75.262	108.1685
9.500000	75.387	106.5335
9.620000	75.528	105.1029
9.750000	75.691	103.7672
9.880000	75.863	102.5689
10.000000	76.028	101.5690
10.150000	76.245	100.4705
10.300000	76.468	99.4279
10.440000	76.684	98.5016
10.600000	76.932	97.5030
10.750000	77.158	96.6067
10.900000	77.380	95.7619
11.060000	77.607	94.9511
11.200000	77.798	94.3171
11.380000	78.036	93.5955
11.500000	78.191	93.1839
11.720000	78.470	92.5093
11.800000	78.570	92.2737
12.060000	78.890	91.5379
12.200000	79.051	91.1029
12.410000	79.282	90.4093
12.500000	79.380	90.0942
12.650000	79.544	89.5380
12.800000	79.697	88.9760
13.150000	79.986	87.7088
13.200000	80.022	87.5422
13.400000	80.148	86.9198
13.600000	80.262	86.3548
13.800000	80.367	85.8530
14.000000	80.467	85.3537
14.300000	80.611	84.5749
14.500000	80.702	83.9830
14.750000	80.803	83.1695
15.000000	80.888	82.2839
15.250000	80.958	81.3813
15.500000	81.020	80.4938
15.750000	81.081	79.6303
16.000000	81.153	78.7793
16.250000	81.241	77.8966
16.500000	81.345	76.9643
16.750000	81.452	75.9613
17.000000	81.559	74.9163
17.250000	81.666	73.8561
17.500000	81.771	72.8184
17.750000	81.878	71.8343
18.000000	81.988	70.9038
18.250000	82.104	70.0253
18.500000	82.225	69.1787
18.750000	82.347	68.3609
19.000000	82.468	67.5693
19.250000	82.584	66.8194
19.500000	82.695	66.1231
19.750000	82.800	65.4890
20.000000	82.904	64.9193
20.299999	83.024	64.3029
20.600000	83.142	63.7406
20.900000	83.253	63.2123
21.200001	83.357	62.7060
21.400000	83.421	62.3782
21.799999	83.538	61.7365
22.000000	83.592	61.4160
22.400000	83.688	60.7603
22.700001	83.749	60.2513
23.000000	83.802	59.7355
23.299999	83.849	59.2243
23.600000	83.893	58.7153
24.000000	83.955	58.0112
24.299999	84.004	57.4279
24.700001	84.066	56.5515
25.000000	84.103	55.8460
25.400000	84.139	54.9275
25.799999	84.166	54.1443
26.200001	84.206	53.5330
26.500000	84.253	53.1444
26.900000	84.340	52.6300
27.200001	84.416	52.1982
27.600000	84.521	51.5497
28.000000	84.617	50.8648
28.500000	84.720	50.0481
29.000000	84.807	49.3268
29.500000	84.880	48.7047
30.000000	84.940	48.1852
30.400000	84.982	47.8429
30.700001	85.012	47.6206
31.100000	85.051	47.3465
31.500000	85.092	47.0727
32.000000	85.140	46.7001
32.500000	85.185	46.2753
33.000000	85.222	45.7994
33.500000	85.250	45.3026
34.000000	85.270	44.8430
34.500000	85.296	44.4582
35.000000	85.337	44.1122
35.500000	85.394	43.7035
36.000000	85.453	43.1666
36.500000	85.494	42.5566
37.000000	85.512	42.0235
37.500000	85.522	41.6673
38.200001	85.557	41.3727
38.700001	85.597	41.1606
39.500000	85.664	40.7689
40.000000	85.709	40.5190
40.599998	85.774	40.1183
41.200001	85.824	39.5445
41.799999	85.839	38.9621
42.500000	85.841	38.5136
43.099998	85.861	38.2496
43.700001	85.895	37.9265
44.400002	85.924	37.5086
45.000000	85.944	37.2349
45.500000	85.969	37.0513
46.200001	86.016	36.7411
46.799999	86.048	36.4051
47.500000	86.071	36.0500
48.200001	86.092	35.7797
48.700001	86.110	35.5936
49.400002	86.135	35.3109
50.000000	86.152	35.0802
50.799999	86.178	34.7941
51.500000	86.202	34.5311
52.200001	86.222	34.2733
53.000000	86.247	34.0070
53.799999	86.272	33.7543
54.500000	86.296	33.5425
55.200001	86.321	33.3347
56.000000	86.348	33.0736
57.000000	86.364	32.8279
58.000000	86.408	32.8850
59.000000	86.512	32.5710
60.000000	86.528	31.8759
60.799999	86.504	31.7610
61.500000	86.521	31.7824
62.200001	86.547	31.6304
63.000000	86.551	31.4130
64.000000	86.552	31.2978
65.000000	86.573	31.1725
66.000000	86.598	30.9353
67.000000	86.611	30.7172
68.000000	86.636	30.5775
69.000000	86.661	30.3638
70.000000	86.673	30.2350
71.000000	86.691	30.1691
72.000000	86.713	30.1182
73.000000	86.737	29.9573
74.000000	86.731	29.7915
75.000000	86.734	29.8125
76.199997	86.757	29.6836
77.500000	86.769	29.5523
78.800003	86.803	29.4939
80.000000	86.849	29.1954
81.199997	86.838	28.9594
82.500000	86.871	29.0889
83.800003	86.909	28.9354
85.000000	86.934	28.9805
86.199997	86.967	28.8796
87.500000	86.973	28.9210
88.500000	86.997	28.9271
90.000000	87.010	28.9015
91.199997	87.030	28.8703
92.500000	87.051	28.7792
93.800003	87.055	28.6591
95.000000	87.070	28.7074
96.199997	87.094	28.6546
97.500000	87.113	28.6347
98.800003	87.136	28.6346
100.000000	87.154	28.6263
101.500000	87.174	28.6474
103.000000	87.194	28.6624
104.400002	87.216	28.6888
106.000000	87.244	28.6622
107.500000	87.266	28.6314
109.000000	87.283	28.6900
110.599998	87.314	28.7212
112.000000	87.337	28.7390
113.800003	87.364	28.7864
115.000000	87.391	28.7674
117.199997	87.436	28.9601
118.000000	87.467	28.8295
120.599998	87.471	29.0220
122.000000	87.489	29.0286
124.099998	87.533	29.0899
125.000000	87.543	29.1286
126.500000	87.592	29.1131
128.000000	87.601	29.1409
131.500000	87.668	29.3449
132.000000	87.682	29.3708
134.000000	87.718	29.3986
136.000000	87.758	29.4980
138.000000	87.802	29.5907
140.000000	87.845	29.5258
143.000000	87.902	29.7138
145.000000	87.942	29.8063
147.500000	87.991	29.9531
150.000000	88.039	30.0210
152.500000	88.091	30.1281
155.000000	88.143	30.2174
157.500000	88.199	30.3327
160.000000	88.249	30.4301
162.500000	88.282	30.5412
165.000000	88.322	30.6504
167.500000	88.355	30.7507
170.000000	88.398	30.8033
172.500000	88.436	30.9118
175.000000	88.475	31.0206
177.500000	88.519	31.1353
180.000000	88.549	31.1962
182.500000	88.585	31.2700
185.000000	88.627	31.3451
187.500000	88.665	31.4331
190.000000	88.707	31.5384
192.500000	88.745	31.6095
195.000000	88.777	31.6553
197.500000	88.817	31.7564
200.000000	88.857	31.7954
203.000000	88.903	31.9096
206.000000	88.956	31.9884
209.000000	89.008	32.0366
212.000000	89.066	32.1486
214.000000	89.098	32.1505
218.000000	89.165	32.2568
220.000000	89.195	32.3082
224.000000	89.264	32.3694
227.000000	89.315	32.4145
230.000000	89.371	32.4632
233.000000	89.416	32.5138
236.000000	89.467	32.5857
240.000000	89.526	32.6547
243.000000	89.580	32.6716
247.000000	89.642	32.7487
250.000000	89.688	32.7480
254.000000	89.754	32.7858
258.000000	89.819	32.7947
262.000000	89.884	32.8531
265.000000	89.932	32.8369
269.000000	89.995	32.8782
272.000000	90.041	32.9217
276.000000	90.100	32.9210
280.000000	90.160	32.9064
285.000000	90.236	32.9199
290.000000	90.305	32.8990
295.000000	90.378	32.8864
300.000000	90.451	32.8809
304.000000	90.505	32.8167
307.000000	90.547	32.8198
311.000000	90.610	32.7847
315.000000	90.660	32.7427
320.000000	90.725	32.7080
325.000000	90.787	32.6525
330.000000	90.852	32.5904
335.000000	90.912	32.5284
340.000000	90.969	32.4483
345.000000	91.030	32.3599
350.000000	91.088	32.2763
355.000000	91.146	32.1824
360.000000	91.204	32.0720
365.000000	91.259	32.0046
370.000000	91.313	31.8863
375.000000	91.365	31.7969
382.000000	91.432	31.6428
387.000000	91.484	31.5065
395.000000	91.561	31.3296
400.000000	91.600	31.2043
406.000000	91.663	31.0084
412.000000	91.711	30.8661
418.000000	91.758	30.7134
425.000000	91.808	30.4720
431.000000	91.855	30.3569
437.000000	91.899	30.1425
444.000000	91.948	29.9264
450.000000	91.984	29.7427
455.000000	92.012	29.5942
462.000000	92.052	29.3875
468.000000	92.090	29.2103
475.000000	92.122	28.9938
482.000000	92.152	28.7765
487.000000	92.173	28.5868
494.000000	92.202	28.3868
500.000000	92.225	28.2176
508.000000	92.250	27.9650
515.000000	92.272	27.7354
522.000000	92.282	27.5646
530.000000	92.303	27.3287
538.000000	92.319	27.1215
545.000000	92.329	26.9021
552.000000	92.325	26.7544
560.000000	92.327	26.5651
570.000000	92.326	26.3738
580.000000	92.314	26.1681
590.000000	92.297	25.9926
600.000000	92.277	25.8965
608.000000	92.260	25.8259
615.000000	92.242	25.8085
622.000000	92.221	25.8599
630.000000	92.199	25.8801
640.000000	92.176	25.9585
650.000000	92.149	26.0825
660.000000	92.127	26.2401
670.000000	92.099	26.3737
680.000000	92.072	26.5081
690.000000	92.045	26.7225
700.000000	92.016	26.9855
710.000000	91.987	27.2503
720.000000	91.960	27.5785
730.000000	91.924	27.9289
740.000000	91.895	28.2976
750.000000	91.872	28.7416
762.000000	91.844	29.2756
775.000000	91.819	29.9304
788.000000	91.804	30.5990
800.000000	91.795	31.3144
812.000000	91.785	31.9860
825.000000	91.773	32.7908
838.000000	91.785	33.5057
850.000000	91.790	34.1797
862.000000	91.802	34.8692
875.000000	91.812	35.5963
885.000000	91.826	36.1676
900.000000	91.853	37.0255
912.000000	91.876	37.7066
925.000000	91.906	38.4480
938.000000	91.945	39.2325
950.000000	91.979	39.9493
962.000000	92.025	40.6320
975.000000	92.074	41.3210
988.000000	92.136	42.0619
1000.000000	92.211	42.7068
1015.000000	92.293	43.4676
1030.000000	92.386	44.1926
1044.000000	92.477	44.7851
1060.000000	92.594	45.4827
1075.000000	92.700	46.1157
1090.000000	92.804	46.6876
1106.000000	92.924	47.2690
1120.000000	93.026	47.6842
1138.000000	93.147	48.2453
1150.000000	93.240	48.5890
1172.000000	93.386	49.2026
1180.000000	93.444	49.4083
1206.000000	93.621	50.0636
1220.000000	93.709	50.3849
1241.000000	93.845	50.8557
1250.000000	93.900	51.0709
1265.000000	93.965	51.4208
1280.000000	94.031	51.7618
1315.000000	94.180	52.5562
1320.000000	94.202	52.6530
1340.000000	94.286	53.1540
1360.000000	94.375	53.6051
1380.000000	94.460	54.0887
1400.000000	94.546	54.5741
1430.000000	94.684	55.3602
1450.000000	94.783	55.8601
1475.000000	94.905	56.4607
1500.000000	95.031	57.0922
1525.000000	95.171	57.7021
1550.000000	95.311	58.2922
1575.000000	95.461	58.8536
1600.000000	95.618	59.3960
1625.000000	95.818	59.8822
1650.000000	96.024	60.3047
1675.000000	96.245	60.6778
1700.000000	96.457	60.9648
1725.000000	96.679	61.1659
1750.000000	96.897	61.2751
1775.000000	97.124	61.3373
1800.000000	97.346	61.2535
1825.000000	97.567	61.0940
1850.000000	97.783	60.8313
1875.000000	97.988	60.4581
1900.000000	98.195	59.9640
1925.000000	98.396	59.3731
1950.000000	98.584	58.6642
1975.000000	98.765	57.9013
2000.000000	98.931	56.9806
2030.000000	99.108	55.8529
2060.000000	99.272	54.4949
2090.000000	99.422	53.0339
2120.000000	99.559	51.4413
2140.000000	99.641	50.3327
2180.000000	99.798	47.9159
2200.000000	99.869	46.6384
2240.000000	99.994	43.9823
2270.000000	100.082	41.8998
2300.000000	100.149	39.7864
2330.000000	100.208	37.6512
2360.000000	100.240	35.5077
2400.000000	100.260	32.6647
2430.000000	100.252	30.6259
2470.000000	100.213	27.9845
2500.000000	100.168	26.1509
2540.000000	100.079	23.8259
2580.000000	99.971	21.7307
2620.000000	99.846	19.9044
2650.000000	99.748	18.6640
2690.000000	99.610	17.1754
2720.000000	99.506	16.2172
2760.000000	99.362	15.1485
2800.000000	99.217	14.2703
2850.000000	99.045	13.3730
2900.000000	98.882	12.7318
2950.000000	98.736	12.3228
3000.000000	98.602	12.0958
3040.000000	98.514	11.9982
3070.000000	98.451	11.9963
3110.000000	98.389	12.0055
3150.000000	98.334	12.1189
3200.000000	98.279	12.3289
3250.000000	98.250	12.5914
3300.000000	98.248	12.8678
3350.000000	98.264	13.1432
3400.000000	98.306	13.4831
3450.000000	98.374	13.7332
3500.000000	98.454	14.0004
3550.000000	98.560	14.1899
3600.000000	98.692	14.2495
3650.000000	98.848	14.2376
3700.000000	99.023	14.0785
3750.000000	99.205	13.7843
3820.000000	99.510	12.9401
3870.000000	99.741	12.0930
3950.000000	100.131	10.0044
4000.000000	100.382	8.1987
4060.000000	100.667	5.5746
4120.000000	100.928	2.1855
4180.000000	101.152	-1.9030
4250.000000	101.324	-7.5886
4310.000000	101.378	-13.0829
4370.000000	101.329	-18.9926
4440.000000	101.115	-25.8367
4500.000000	100.808	-31.3220
4550.000000	100.459	-35.4174
4620.000000	99.862	-40.1580
4680.000000	99.280	-43.3438
4750.000000	98.531	-46.0507
4820.000000	97.756	-47.8732
4870.000000	97.200	-48.6412
4940.000000	96.433	-49.1650
5000.000000	95.791	-49.1504
5080.000000	94.950	-48.6360
5150.000000	94.257	-47.8103
5220.000000	93.593	-46.5744
5300.000000	92.874	-44.8464
5380.000000	92.196	-42.9222
5450.000000	91.620	-40.9435
5520.000000	91.088	-38.7248
5600.000000	90.521	-35.9917
5700.000000	89.879	-31.4311
5800.000000	89.712	-26.8527
5900.000000	89.323	-25.5430
6000.000000	88.796	-22.5506
6080.000000	88.451	-19.6328
6150.000000	88.188	-17.0056
6220.000000	87.939	-14.2672
6300.000000	87.677	-11.2592
6400.000000	87.509	-7.4025
6500.000000	87.402	-3.4654
6600.000000	87.311	0.5511
6700.000000	87.257	4.5007
6800.000000	87.265	8.4090
6900.000000	87.336	12.3960
7000.000000	87.430	16.3432
7100.000000	87.595	20.3268
7200.000000	87.813	24.0137
7300.000000	88.093	27.6590
7400.000000	88.394	31.1781
7500.000000	88.757	34.4605
7620.000000	89.248	38.2827
7750.000000	89.895	41.9598
7880.000000	90.648	45.0729
8000.000000	91.435	47.3490
8120.000000	92.192	48.8280
8250.000000	93.072	49.1929
8380.000000	94.034	47.7888
8500.000000	94.873	44.6991
8620.000000	95.604	39.5667
8750.000000	96.073	32.1097
8850.000000	96.126	25.6456
9000.000000	95.718	16.9119
9120.000000	95.081	11.7326
9250.000000	94.282	8.2705
9380.000000	93.474	6.9964
9500.000000	92.811	7.1782
9620.000000	92.230	8.4379
9750.000000	91.772	10.4577
9880.000000	91.435	13.1280
10000.000000	91.285	15.9489
10150.000000	91.402	19.5491
10300.000000	91.759	23.1387
10440.000000	92.339	25.6922
10600.000000	93.295	27.3227
10750.000000	94.439	26.3028
10900.000000	95.685	21.5119
11060.000000	96.723	11.5184
11200.000000	97.105	-0.3450
11380.000000	96.670	-15.8746
11500.000000	95.916	-24.7482
11720.000000	93.952	-35.2846
11800.000000	93.189	-37.3089
12060.000000	90.796	-39.4958
12200.000000	89.673	-38.5832
12410.000000	88.253	-35.6083
12500.000000	87.740	-34.1040
12650.000000	86.961	-31.0237
12800.000000	86.299	-27.6226
13150.000000	85.406	-19.4349
13200.000000	85.338	-18.6103
13400.000000	85.337	-15.1241
13600.000000	85.566	-13.0849
13800.000000	86.100	-14.3951
14000.000000	86.680	-20.1669
14300.000000	86.366	-39.0771
14500.000000	84.661	-52.2862
14750.000000	81.598	-60.8154
15000.000000	78.464	-61.2996
15250.000000	75.799	-56.8069
15500.000000	73.426	-51.2794
15750.000000	71.567	-42.6304
16000.000000	69.782	-34.3657
16250.000000	68.758	-24.6012
16500.000000	67.860	-14.0134
16750.000000	67.301	-3.7815
17000.000000	67.190	3.0923
17250.000000	66.911	14.8532
17500.000000	66.901	25.1159
17750.000000	66.985	33.1140
18000.000000	67.426	41.6218
18250.000000	68.233	47.3501
18500.000000	68.880	53.5943
18750.000000	69.749	55.5837
19000.000000	70.460	52.9449
19250.000000	69.801	46.3870
19500.000000	68.875	40.4993
19750.000000	67.068	38.1250
