* Measurement data measured by REW V5.20.13
* Source: C:\Users\marcu\OneDrive\Desktop\audio_db\Kiwi Ears Cadenza Foam R.txt
* Format: Comma/Tab/Space delimited data
* Dated: Jul 16, 2023 6:23:45 PM
* REW Settings:
*  C-weighting compensation: Off
*  Target level: 75.0 dB
* Note: ; Measurement imported from C:\Users\marcu\OneDrive\Desktop\audio_db\Kiwi Ears Cadenza Foam R.txt Format: Comma/Tab/Space delimited data 54613 values loaded, 0 Hz to 20,000 Hz 
* Measurement: Kiwi Ears Cadenza Foam R
* Smoothing: None
* Frequency Step: 1/48 octave
* Start Frequency: 1.000 Hz
*
* Freq(Hz)	SPL(dB)	Phase(degrees)
1.000000	67.053	-67.8571
1.015000	66.875	-68.8014
1.030000	66.688	-69.7325
1.044000	66.507	-70.5887
1.060000	66.291	-71.5508
1.075000	66.078	-72.4358
1.090000	65.856	-73.3034
1.106000	65.608	-74.2329
1.120000	65.377	-75.1819
1.138000	65.064	-76.5967
1.150000	64.845	-77.6425
1.172000	64.425	-79.7256
1.180000	64.266	-80.5241
1.206000	63.734	-83.2102
1.220000	63.437	-84.6816
1.241000	62.981	-86.8673
1.250000	62.783	-87.7818
1.265000	62.448	-89.2565
1.280000	62.109	-90.6482
1.315000	61.311	-93.4351
1.320000	61.197	-93.7673
1.340000	60.740	-94.8946
1.360000	60.285	-95.6562
1.380000	59.835	-95.9939
1.400000	59.393	-95.8496
1.430000	58.750	-94.6018
1.450000	58.337	-92.9976
1.475000	57.836	-89.9800
1.500000	57.289	-85.4777
1.525000	56.694	-79.6079
1.550000	56.066	-72.5961
1.575000	55.420	-64.6675
1.600000	54.771	-56.0475
1.625000	54.135	-46.9614
1.650000	53.527	-37.6346
1.675000	52.961	-28.2923
1.700000	52.454	-19.1599
1.725000	52.021	-10.4627
1.750000	51.676	-2.4261
1.775000	51.435	4.7246
1.800000	51.313	10.7641
1.825000	51.326	15.4671
1.850000	51.496	18.8238
1.875000	51.837	21.2832
1.900000	52.328	22.9520
1.925000	52.947	23.9180
1.950000	53.669	24.2691
1.975000	54.474	24.0929
2.000000	55.338	23.4774
2.030000	56.420	22.2825
2.060000	57.516	20.7330
2.090000	58.586	18.9806
2.120000	59.591	17.1771
2.140000	60.205	16.0213
2.180000	61.249	14.0236
2.200000	61.655	13.2685
2.240000	62.328	11.6752
2.270000	62.755	10.2347
2.300000	63.124	8.6179
2.330000	63.441	6.8554
2.360000	63.716	4.9778
2.400000	64.029	2.3481
2.430000	64.233	0.3209
2.470000	64.480	-2.3971
2.500000	64.657	-4.4072
2.540000	64.894	-6.9913
2.580000	65.146	-9.4221
2.620000	65.373	-11.8461
2.650000	65.522	-13.6801
2.690000	65.697	-16.1365
2.720000	65.811	-17.9803
2.760000	65.944	-20.4305
2.800000	66.059	-22.8598
2.850000	66.182	-25.8476
2.900000	66.291	-28.7583
2.950000	66.389	-31.5766
3.000000	66.463	-34.3645
3.040000	66.504	-36.5722
3.070000	66.525	-38.2072
3.110000	66.542	-40.3503
3.150000	66.548	-42.4405
3.200000	66.543	-44.9612
3.250000	66.529	-47.3586
3.300000	66.509	-49.6104
3.350000	66.474	-51.7506
3.400000	66.420	-53.8024
3.450000	66.351	-55.7487
3.500000	66.275	-57.5727
3.550000	66.196	-59.2574
3.600000	66.120	-60.7860
3.650000	66.052	-62.1415
3.700000	65.991	-63.3049
3.750000	65.920	-64.2757
3.820000	65.819	-65.3558
3.870000	65.753	-65.9608
3.950000	65.681	-66.7068
4.000000	65.666	-67.0717
4.060000	65.687	-67.4090
4.120000	65.741	-67.4971
4.180000	65.822	-67.4004
4.250000	65.950	-67.1836
4.310000	66.087	-67.0196
4.370000	66.246	-66.9781
4.440000	66.467	-67.1378
4.500000	66.697	-67.3235
4.550000	66.909	-67.5193
4.620000	67.226	-67.8845
4.680000	67.503	-68.3085
4.750000	67.815	-68.9669
4.820000	68.117	-69.8374
4.870000	68.339	-70.5831
4.940000	68.650	-71.7608
5.000000	68.912	-72.8595
5.080000	69.241	-74.3937
5.150000	69.502	-75.7557
5.220000	69.743	-77.2128
5.300000	69.999	-78.9774
5.380000	70.233	-80.7731
5.450000	70.419	-82.3086
5.520000	70.587	-83.7667
5.600000	70.752	-85.4160
5.700000	70.926	-87.4309
5.800000	71.074	-89.3106
5.900000	71.206	-90.9764
6.000000	71.309	-92.4596
6.080000	71.377	-93.5246
6.150000	71.434	-94.3667
6.220000	71.494	-95.1238
6.300000	71.565	-95.8632
6.400000	71.648	-96.6032
6.500000	71.736	-97.2131
6.600000	71.839	-97.7727
6.700000	71.959	-98.2450
6.800000	72.092	-98.6310
6.900000	72.232	-99.0198
7.000000	72.380	-99.4878
7.100000	72.541	-99.9929
7.200000	72.707	-100.5377
7.300000	72.869	-101.1456
7.400000	73.022	-101.8396
7.500000	73.172	-102.6124
7.620000	73.341	-103.5970
7.750000	73.501	-104.6867
7.880000	73.638	-105.8362
8.000000	73.747	-106.8902
8.120000	73.840	-107.8777
8.250000	73.919	-108.9033
8.380000	73.986	-109.8592
8.500000	74.044	-110.6505
8.620000	74.094	-111.3601
8.750000	74.147	-112.0687
8.850000	74.192	-112.5833
9.000000	74.262	-113.2813
9.120000	74.322	-113.8283
9.250000	74.392	-114.4462
9.380000	74.467	-115.0696
9.500000	74.536	-115.6749
9.620000	74.605	-116.3267
9.750000	74.679	-117.0729
9.880000	74.741	-117.8460
10.000000	74.779	-118.5855
10.150000	74.809	-119.5396
10.300000	74.826	-120.4825
10.440000	74.827	-121.3553
10.600000	74.821	-122.3295
10.750000	74.814	-123.2008
10.900000	74.805	-124.0410
11.060000	74.797	-124.9101
11.200000	74.792	-125.6442
11.380000	74.788	-126.5776
11.500000	74.788	-127.1978
11.720000	74.790	-128.3324
11.800000	74.791	-128.7483
12.060000	74.796	-130.1017
12.200000	74.795	-130.8223
12.410000	74.796	-131.8888
12.500000	74.802	-132.3332
12.650000	74.821	-133.0586
12.800000	74.843	-133.7648
13.150000	74.902	-135.3338
13.200000	74.911	-135.5524
13.400000	74.948	-136.4125
13.600000	74.985	-137.2592
13.800000	75.022	-138.0977
14.000000	75.056	-138.9187
14.300000	75.099	-140.1095
14.500000	75.124	-140.8585
14.750000	75.152	-141.7380
15.000000	75.177	-142.5547
15.250000	75.204	-143.3248
15.500000	75.231	-144.0712
15.750000	75.258	-144.8056
16.000000	75.283	-145.5401
16.250000	75.307	-146.2651
16.500000	75.327	-146.9743
16.750000	75.343	-147.6557
17.000000	75.355	-148.3103
17.250000	75.366	-148.9445
17.500000	75.375	-149.5685
17.750000	75.383	-150.1964
18.000000	75.389	-150.8294
18.250000	75.393	-151.4683
18.500000	75.394	-152.1037
18.750000	75.393	-152.7333
19.000000	75.391	-153.3547
19.250000	75.390	-153.9754
19.500000	75.390	-154.6019
19.750000	75.390	-155.2383
20.000000	75.388	-155.8822
20.299999	75.383	-156.6440
20.600000	75.377	-157.3717
20.900000	75.370	-158.0467
21.200001	75.369	-158.6694
21.400000	75.374	-159.0726
21.799999	75.393	-159.8925
22.000000	75.405	-160.3259
22.400000	75.425	-161.2485
22.700001	75.429	-161.9550
23.000000	75.422	-162.6220
23.299999	75.410	-163.2126
23.600000	75.397	-163.7219
24.000000	75.388	-164.3102
24.299999	75.389	-164.7371
24.700001	75.395	-165.3441
25.000000	75.397	-165.8315
25.400000	75.388	-166.4834
25.799999	75.372	-167.0792
26.200001	75.361	-167.6168
26.500000	75.360	-168.0272
26.900000	75.365	-168.6547
27.200001	75.365	-169.2055
27.600000	75.346	-170.0024
28.000000	75.302	-170.7449
28.500000	75.236	-171.4314
29.000000	75.197	-171.8928
29.500000	75.199	-172.3789
30.000000	75.211	-173.0557
30.400000	75.206	-173.6669
30.700001	75.193	-174.0948
31.100000	75.172	-174.5770
31.500000	75.159	-174.9874
32.000000	75.154	-175.5074
32.500000	75.146	-176.0864
33.000000	75.125	-176.6484
33.500000	75.098	-177.1268
34.000000	75.079	-177.5685
34.500000	75.063	-178.0575
35.000000	75.037	-178.5918
35.500000	75.002	-179.0945
36.000000	74.964	-179.5231
36.500000	74.936	-179.9164
37.000000	74.918	179.6523
37.500000	74.899	179.1544
38.200001	74.858	178.4334
38.700001	74.823	177.9932
39.500000	74.784	177.3997
40.000000	74.771	176.9775
40.599998	74.746	176.3908
41.200001	74.701	175.8673
41.799999	74.657	175.4978
42.500000	74.629	175.1097
43.099998	74.611	174.6667
43.700001	74.582	174.1773
44.400002	74.536	173.6681
45.000000	74.500	173.2710
45.500000	74.473	172.9296
46.200001	74.431	172.4490
46.799999	74.394	172.0700
47.500000	74.355	171.6550
48.200001	74.318	171.2303
48.700001	74.291	170.9243
49.400002	74.250	170.5202
50.000000	74.218	170.1992
50.799999	74.179	169.7669
51.500000	74.143	169.3631
52.200001	74.102	168.9739
53.000000	74.052	168.5978
53.799999	74.014	168.2459
54.500000	73.980	167.9133
55.200001	73.942	167.5962
56.000000	73.902	167.2637
57.000000	73.852	166.8073
58.000000	73.788	166.4044
59.000000	73.736	166.0523
60.000000	73.683	165.6117
60.799999	73.633	165.2834
61.500000	73.593	165.0266
62.200001	73.556	164.7598
63.000000	73.511	164.4579
64.000000	73.459	164.1091
65.000000	73.406	163.7550
66.000000	73.350	163.4220
67.000000	73.295	163.1180
68.000000	73.242	162.8130
69.000000	73.185	162.4961
70.000000	73.127	162.2346
71.000000	73.080	161.9622
72.000000	73.025	161.6541
73.000000	72.967	161.4249
74.000000	72.914	161.2162
75.000000	72.861	161.0571
76.199997	72.816	160.8199
77.500000	72.747	160.4588
78.800003	72.672	160.1926
80.000000	72.610	159.9641
81.199997	72.548	159.6829
82.500000	72.478	159.4454
83.800003	72.414	159.1602
85.000000	72.347	158.9658
86.199997	72.288	158.7894
87.500000	72.222	158.6342
88.500000	72.178	158.5215
90.000000	72.112	158.3178
91.199997	72.056	158.1386
92.500000	71.993	157.9676
93.800003	71.932	157.8195
95.000000	71.877	157.6907
96.199997	71.822	157.5741
97.500000	71.765	157.4530
98.800003	71.707	157.3288
100.000000	71.654	157.2200
101.500000	71.588	157.0876
103.000000	71.522	156.9543
104.400002	71.462	156.8555
106.000000	71.395	156.7571
107.500000	71.337	156.6796
109.000000	71.278	156.5733
110.599998	71.212	156.4873
112.000000	71.154	156.4277
113.800003	71.085	156.3797
115.000000	71.038	156.3260
117.199997	70.952	156.2643
118.000000	70.921	156.2424
120.599998	70.824	156.1795
122.000000	70.774	156.1445
124.099998	70.694	156.1101
125.000000	70.662	156.1173
126.500000	70.616	156.1176
128.000000	70.569	156.1060
131.500000	70.463	156.0694
132.000000	70.447	156.0728
134.000000	70.389	156.0816
136.000000	70.330	156.1257
138.000000	70.275	156.1631
140.000000	70.219	156.1756
143.000000	70.136	156.2031
145.000000	70.081	156.2640
147.500000	70.015	156.3317
150.000000	69.949	156.4020
152.500000	69.886	156.4424
155.000000	69.823	156.5578
157.500000	69.763	156.6800
160.000000	69.701	156.7788
162.500000	69.631	156.8654
165.000000	69.563	156.9769
167.500000	69.496	157.1027
170.000000	69.425	157.2321
172.500000	69.355	157.3672
175.000000	69.290	157.4811
177.500000	69.226	157.5995
180.000000	69.163	157.7441
182.500000	69.101	157.9036
185.000000	69.043	158.0286
187.500000	68.984	158.1469
190.000000	68.928	158.2979
192.500000	68.873	158.4445
195.000000	68.815	158.6091
197.500000	68.762	158.7943
200.000000	68.711	158.9664
203.000000	68.653	159.1530
206.000000	68.595	159.3432
209.000000	68.543	159.5477
212.000000	68.492	159.7493
214.000000	68.457	159.8695
218.000000	68.390	160.1440
220.000000	68.358	160.3014
224.000000	68.293	160.5877
227.000000	68.246	160.7856
230.000000	68.202	160.9847
233.000000	68.163	161.2137
236.000000	68.116	161.4628
240.000000	68.048	161.8121
243.000000	68.014	161.9789
247.000000	67.969	162.2222
250.000000	67.930	162.4664
254.000000	67.879	162.7464
258.000000	67.832	163.0287
262.000000	67.788	163.3368
265.000000	67.754	163.5601
269.000000	67.710	163.8657
272.000000	67.680	164.0873
276.000000	67.639	164.3770
280.000000	67.600	164.6548
285.000000	67.551	165.0316
290.000000	67.503	165.3801
295.000000	67.458	165.7585
300.000000	67.413	166.1139
304.000000	67.380	166.4242
307.000000	67.356	166.6507
311.000000	67.324	166.9368
315.000000	67.293	167.2368
320.000000	67.254	167.5905
325.000000	67.218	167.9404
330.000000	67.180	168.3286
335.000000	67.146	168.6855
340.000000	67.115	169.0242
345.000000	67.082	169.3771
350.000000	67.052	169.7368
355.000000	67.020	170.0853
360.000000	66.992	170.4137
365.000000	66.962	170.7691
370.000000	66.938	171.1378
375.000000	66.909	171.5026
382.000000	66.875	171.9592
387.000000	66.847	172.2913
395.000000	66.808	172.8680
400.000000	66.788	173.2026
406.000000	66.761	173.6134
412.000000	66.733	174.0117
418.000000	66.715	174.4231
425.000000	66.690	174.8861
431.000000	66.671	175.2881
437.000000	66.650	175.6640
444.000000	66.626	176.1376
450.000000	66.607	176.5241
455.000000	66.594	176.8322
462.000000	66.572	177.2810
468.000000	66.556	177.6861
475.000000	66.535	178.1542
482.000000	66.519	178.6070
487.000000	66.507	178.9094
494.000000	66.489	179.3279
500.000000	66.476	179.6774
508.000000	66.459	-179.8006
515.000000	66.449	-179.3372
522.000000	66.438	-178.8833
530.000000	66.421	-178.3786
538.000000	66.410	-177.8775
545.000000	66.399	-177.4630
552.000000	66.392	-177.0229
560.000000	66.384	-176.5199
570.000000	66.372	-175.8902
580.000000	66.358	-175.2581
590.000000	66.351	-174.6621
600.000000	66.346	-174.0266
608.000000	66.340	-173.5216
615.000000	66.334	-173.0685
622.000000	66.327	-172.6407
630.000000	66.323	-172.1479
640.000000	66.318	-171.5316
650.000000	66.314	-170.8783
660.000000	66.309	-170.2490
670.000000	66.305	-169.5777
680.000000	66.304	-168.8992
690.000000	66.299	-168.2428
700.000000	66.297	-167.5820
710.000000	66.291	-166.8991
720.000000	66.282	-166.1553
730.000000	66.268	-165.3907
740.000000	66.252	-164.5143
750.000000	66.233	-163.4894
762.000000	66.229	-161.9650
775.000000	66.326	-159.9793
788.000000	66.570	-158.5719
800.000000	66.768	-158.2970
812.000000	66.858	-158.2398
825.000000	66.899	-157.9438
838.000000	66.931	-157.4241
850.000000	66.965	-156.8216
862.000000	67.005	-156.1567
875.000000	67.054	-155.4024
885.000000	67.092	-154.8263
900.000000	67.164	-153.9615
912.000000	67.227	-153.2592
925.000000	67.300	-152.5020
938.000000	67.379	-151.7710
950.000000	67.456	-151.1276
962.000000	67.539	-150.4998
975.000000	67.631	-149.8327
988.000000	67.730	-149.1506
1000.000000	67.829	-148.5518
1015.000000	67.974	-147.8555
1030.000000	68.132	-147.2465
1044.000000	68.282	-146.7472
1060.000000	68.453	-146.3021
1075.000000	68.613	-145.9799
1090.000000	68.766	-145.7441
1106.000000	68.919	-145.5562
1120.000000	69.047	-145.4325
1138.000000	69.201	-145.2865
1150.000000	69.300	-145.2317
1172.000000	69.473	-145.1361
1180.000000	69.531	-145.1105
1206.000000	69.715	-145.0327
1220.000000	69.812	-144.9982
1241.000000	69.950	-144.9745
1250.000000	70.001	-144.9714
1265.000000	70.073	-144.9537
1280.000000	70.134	-144.9326
1315.000000	70.271	-144.8504
1320.000000	70.290	-144.8453
1340.000000	70.365	-144.8318
1360.000000	70.437	-144.8218
1380.000000	70.503	-144.7893
1400.000000	70.567	-144.7379
1430.000000	70.663	-144.6821
1450.000000	70.727	-144.6462
1475.000000	70.805	-144.5882
1500.000000	70.880	-144.5169
1525.000000	70.954	-144.4479
1550.000000	71.031	-144.3816
1575.000000	71.110	-144.3243
1600.000000	71.194	-144.2566
1625.000000	71.302	-144.1888
1650.000000	71.417	-144.1310
1675.000000	71.533	-144.0787
1700.000000	71.650	-144.0319
1725.000000	71.764	-143.9929
1750.000000	71.879	-143.9631
1775.000000	71.998	-143.9382
1800.000000	72.117	-143.9296
1825.000000	72.236	-143.9324
1850.000000	72.355	-143.9498
1875.000000	72.472	-143.9871
1900.000000	72.593	-144.0407
1925.000000	72.714	-144.1145
1950.000000	72.835	-144.2033
1975.000000	72.953	-144.2978
2000.000000	73.070	-144.4133
2030.000000	73.206	-144.5784
2060.000000	73.343	-144.7860
2090.000000	73.481	-145.0220
2120.000000	73.615	-145.2817
2140.000000	73.706	-145.4675
2180.000000	73.883	-145.8823
2200.000000	73.970	-146.1150
2240.000000	74.144	-146.6264
2270.000000	74.275	-147.0293
2300.000000	74.402	-147.4703
2330.000000	74.526	-147.9462
2360.000000	74.648	-148.4388
2400.000000	74.808	-149.1633
2430.000000	74.925	-149.7382
2470.000000	75.076	-150.5414
2500.000000	75.185	-151.1787
2540.000000	75.326	-152.0684
2580.000000	75.458	-153.0101
2620.000000	75.582	-153.9892
2650.000000	75.670	-154.7438
2690.000000	75.783	-155.7850
2720.000000	75.865	-156.5996
2760.000000	75.967	-157.6981
2800.000000	76.059	-158.8344
2850.000000	76.160	-160.2732
2900.000000	76.251	-161.7576
2950.000000	76.331	-163.2719
3000.000000	76.399	-164.7990
3040.000000	76.443	-166.0354
3070.000000	76.470	-166.9614
3110.000000	76.500	-168.1989
3150.000000	76.524	-169.4451
3200.000000	76.544	-170.9976
3250.000000	76.550	-172.5389
3300.000000	76.543	-174.0721
3350.000000	76.525	-175.5890
3400.000000	76.500	-177.0886
3450.000000	76.466	-178.5609
3500.000000	76.420	179.9885
3550.000000	76.364	178.5777
3600.000000	76.302	177.1844
3650.000000	76.231	175.8264
3700.000000	76.151	174.5071
3750.000000	76.059	173.2268
3820.000000	75.923	171.4811
3870.000000	75.819	170.2883
3950.000000	75.638	168.4566
4000.000000	75.514	167.3588
4060.000000	75.350	166.1304
4120.000000	75.179	164.9583
4180.000000	75.002	163.8369
4250.000000	74.787	162.6293
4310.000000	74.591	161.6792
4370.000000	74.386	160.8120
4440.000000	74.140	159.8925
4500.000000	73.924	159.1985
4550.000000	73.740	158.6701
4620.000000	73.476	158.0392
4680.000000	73.242	157.5970
4750.000000	72.962	157.1944
4820.000000	72.676	156.9151
4870.000000	72.468	156.7973
4940.000000	72.168	156.7527
5000.000000	71.895	156.8603
5080.000000	71.498	157.3131
5150.000000	71.138	158.2632
5220.000000	70.853	159.9888
5300.000000	70.740	161.7107
5380.000000	70.657	162.2583
5450.000000	70.515	162.3260
5520.000000	70.302	162.4631
5600.000000	70.026	163.0018
5700.000000	69.686	164.1013
5800.000000	69.371	165.5247
5900.000000	69.093	167.1197
6000.000000	68.846	168.8340
6080.000000	68.671	170.2522
6150.000000	68.528	171.5132
6220.000000	68.399	172.7983
6300.000000	68.281	174.2721
6400.000000	68.201	176.1231
6500.000000	68.156	177.9956
6600.000000	68.129	179.8879
6700.000000	68.117	-178.2024
6800.000000	68.124	-176.2593
6900.000000	68.154	-174.3301
7000.000000	68.204	-172.3956
7100.000000	68.281	-170.4725
7200.000000	68.392	-168.5928
7300.000000	68.532	-166.8430
7400.000000	68.695	-165.2099
7500.000000	68.879	-163.6943
7620.000000	69.128	-162.0782
7750.000000	69.437	-160.6288
7880.000000	69.783	-159.5592
8000.000000	70.095	-158.9779
8120.000000	70.337	-158.8207
8250.000000	70.567	-159.1654
8380.000000	70.774	-160.0659
8500.000000	70.919	-161.2680
8620.000000	71.013	-162.7201
8750.000000	71.059	-164.4180
8850.000000	71.065	-165.7324
9000.000000	71.056	-167.7586
9120.000000	71.030	-169.5675
9250.000000	70.962	-171.8271
9380.000000	70.809	-174.2979
9500.000000	70.581	-176.5418
9620.000000	70.272	-178.4716
9750.000000	69.875	-179.9990
9880.000000	69.450	179.1725
10000.000000	69.076	178.9987
10150.000000	68.695	179.4701
10300.000000	68.407	-179.4512
10440.000000	68.226	-178.0484
10600.000000	68.139	-176.1346
10750.000000	68.182	-174.2565
10900.000000	68.355	-172.5044
11060.000000	68.697	-170.9348
11200.000000	69.145	-170.1448
11380.000000	69.928	-170.5060
11500.000000	70.565	-172.0750
11720.000000	71.807	-179.3307
11800.000000	72.187	176.2353
12060.000000	72.438	156.1007
12200.000000	71.705	144.7395
12410.000000	69.724	132.4820
12500.000000	68.719	129.3606
12650.000000	67.006	126.5085
12800.000000	65.363	125.8721
13150.000000	62.036	129.5611
13200.000000	61.620	130.4629
13400.000000	60.080	134.5825
13600.000000	58.721	139.2343
13800.000000	57.479	144.2341
14000.000000	56.314	150.0214
14300.000000	54.984	160.0620
14500.000000	54.373	166.8972
14750.000000	54.061	174.8073
15000.000000	54.031	178.9178
15250.000000	53.695	179.9445
15500.000000	52.937	-178.7386
15750.000000	51.978	-175.7060
16000.000000	51.086	-170.5977
16250.000000	50.636	-163.5950
16500.000000	50.648	-155.6754
16750.000000	51.037	-148.6741
17000.000000	51.601	-143.7057
17250.000000	52.081	-140.8712
17500.000000	52.470	-138.8864
17750.000000	52.695	-136.9429
18000.000000	52.879	-134.9221
18250.000000	53.050	-132.9885
18500.000000	53.221	-131.6431
18750.000000	53.366	-131.2603
19000.000000	53.421	-132.2244
19250.000000	53.279	-134.9845
19500.000000	52.752	-139.2875
19750.000000	51.723	-144.0655
