* Measurement data measured by REW V5.20.13
* Source: C:\Users\marcu\OneDrive\Desktop\audio_db\KZ EDXS Foam L.txt
* Format: Comma/Tab/Space delimited data
* Dated: Jul 16, 2023 7:46:49 PM
* REW Settings:
*  C-weighting compensation: Off
*  Target level: 75.0 dB
* Note: ; Measurement imported from C:\Users\marcu\OneDrive\Desktop\audio_db\KZ EDXS Foam L.txt Format: Comma/Tab/Space delimited data 54613 values loaded, 0 Hz to 20,000 Hz 
* Measurement: KZ EDXS Foam L
* Smoothing: None
* Frequency Step: 1/48 octave
* Start Frequency: 1.000 Hz
*
* Freq(Hz)	SPL(dB)	Phase(degrees)
1.000000	66.951	125.4428
1.015000	66.791	124.5709
1.030000	66.625	123.6902
1.044000	66.466	122.8598
1.060000	66.279	121.8999
1.075000	66.097	120.9888
1.090000	65.910	120.0663
1.106000	65.704	119.0772
1.120000	65.522	118.2530
1.138000	65.287	117.2531
1.150000	65.129	116.6177
1.172000	64.836	115.5017
1.180000	64.728	115.1075
1.206000	64.371	113.8498
1.220000	64.173	113.1764
1.241000	63.870	112.1536
1.250000	63.737	111.7057
1.265000	63.511	110.9402
1.280000	63.280	110.1436
1.315000	62.713	108.1190
1.320000	62.629	107.8064
1.340000	62.283	106.4854
1.360000	61.922	105.0372
1.380000	61.546	103.4425
1.400000	61.152	101.6821
1.430000	60.525	98.6887
1.450000	60.082	96.4297
1.475000	59.492	93.2852
1.500000	58.802	89.8484
1.525000	58.017	86.1520
1.550000	57.158	82.2123
1.575000	56.245	78.0456
1.600000	55.298	73.6683
1.625000	54.339	69.0964
1.650000	53.387	64.3464
1.675000	52.463	59.4345
1.700000	51.588	54.3769
1.725000	50.781	49.1900
1.750000	50.064	43.8901
1.775000	49.457	38.4934
1.800000	48.981	33.0161
1.825000	48.655	27.4745
1.850000	48.494	21.7248
1.875000	48.485	15.4459
1.900000	48.609	8.7232
1.925000	48.847	1.6591
1.950000	49.182	-5.6438
1.975000	49.595	-13.0830
2.000000	50.069	-20.5560
2.030000	50.692	-29.4239
2.060000	51.345	-38.0157
2.090000	51.997	-46.1543
2.120000	52.616	-53.6626
2.140000	52.995	-58.2305
2.180000	53.632	-66.0796
2.200000	53.870	-69.2574
2.240000	54.283	-74.3227
2.270000	54.571	-77.1853
2.300000	54.840	-79.3501
2.330000	55.092	-80.9112
2.360000	55.327	-81.9629
2.400000	55.615	-82.7356
2.430000	55.812	-82.9650
2.470000	56.052	-82.9832
2.500000	56.215	-82.9034
2.540000	56.412	-82.8512
2.580000	56.580	-82.9914
2.620000	56.690	-82.8428
2.650000	56.737	-82.4827
2.690000	56.764	-81.7153
2.720000	56.768	-80.9547
2.760000	56.763	-79.7381
2.800000	56.762	-78.3408
2.850000	56.789	-76.4245
2.900000	56.879	-74.4205
2.950000	57.057	-72.3814
3.000000	57.293	-69.9381
3.040000	57.512	-67.7190
3.070000	57.692	-65.9578
3.110000	57.950	-63.5503
3.150000	58.227	-61.1551
3.200000	58.593	-58.3114
3.250000	58.976	-55.7939
3.300000	59.370	-53.7717
3.350000	59.797	-52.1725
3.400000	60.264	-50.8471
3.450000	60.758	-49.7683
3.500000	61.262	-48.9090
3.550000	61.761	-48.2420
3.600000	62.241	-47.7402
3.650000	62.687	-47.3764
3.700000	63.095	-47.1769
3.750000	63.487	-47.2289
3.820000	64.010	-47.6360
3.870000	64.362	-48.0954
3.950000	64.888	-48.9801
4.000000	65.191	-49.5461
4.060000	65.527	-50.1909
4.120000	65.830	-50.9353
4.180000	66.104	-51.7659
4.250000	66.392	-52.7870
4.310000	66.617	-53.6583
4.370000	66.827	-54.4810
4.440000	67.052	-55.3580
4.500000	67.219	-56.0983
4.550000	67.342	-56.7020
4.620000	67.498	-57.5106
4.680000	67.621	-58.1545
4.750000	67.760	-58.8283
4.820000	67.891	-59.4061
4.870000	67.974	-59.7677
4.940000	68.081	-60.2137
5.000000	68.169	-60.5500
5.080000	68.287	-60.9491
5.150000	68.398	-61.2633
5.220000	68.512	-61.5062
5.300000	68.641	-61.7155
5.380000	68.775	-61.8998
5.450000	68.897	-62.0801
5.520000	69.025	-62.3063
5.600000	69.182	-62.5710
5.700000	69.386	-62.9250
5.800000	69.594	-63.3589
5.900000	69.800	-63.9255
6.000000	70.009	-64.6120
6.080000	70.177	-65.2331
6.150000	70.320	-65.8229
6.220000	70.456	-66.4508
6.300000	70.605	-67.2276
6.400000	70.782	-68.2920
6.500000	70.949	-69.4158
6.600000	71.103	-70.5518
6.700000	71.243	-71.7154
6.800000	71.369	-72.9107
6.900000	71.487	-74.0978
7.000000	71.597	-75.2425
7.100000	71.697	-76.3647
7.200000	71.789	-77.4617
7.300000	71.880	-78.5214
7.400000	71.971	-79.5330
7.500000	72.059	-80.5009
7.620000	72.166	-81.6233
7.750000	72.288	-82.8095
7.880000	72.416	-83.9492
8.000000	72.539	-84.9881
8.120000	72.667	-86.0419
8.250000	72.813	-87.1866
8.380000	72.961	-88.3441
8.500000	73.096	-89.4368
8.620000	73.233	-90.5504
8.750000	73.378	-91.7650
8.850000	73.486	-92.6990
9.000000	73.644	-94.1108
9.120000	73.765	-95.2261
9.250000	73.891	-96.4042
9.380000	74.011	-97.5602
9.500000	74.118	-98.5943
9.620000	74.224	-99.5887
9.750000	74.335	-100.6270
9.880000	74.437	-101.6270
10.000000	74.519	-102.5140
10.150000	74.607	-103.5773
10.300000	74.690	-104.6067
10.440000	74.761	-105.5347
10.600000	74.837	-106.5663
10.750000	74.909	-107.5143
10.900000	74.977	-108.4409
11.060000	75.046	-109.4101
11.200000	75.103	-110.2419
11.380000	75.170	-111.2860
11.500000	75.211	-111.9657
11.720000	75.279	-113.1785
11.800000	75.302	-113.6083
12.060000	75.369	-114.9671
12.200000	75.400	-115.6788
12.410000	75.442	-116.7217
12.500000	75.465	-117.1629
12.650000	75.509	-117.8892
12.800000	75.553	-118.6067
13.150000	75.644	-120.2532
13.200000	75.656	-120.4854
13.400000	75.700	-121.4062
13.600000	75.740	-122.3167
13.800000	75.775	-123.2170
14.000000	75.807	-124.1131
14.300000	75.851	-125.4536
14.500000	75.878	-126.3515
14.750000	75.908	-127.4800
15.000000	75.935	-128.6145
15.250000	75.957	-129.7473
15.500000	75.976	-130.8687
15.750000	75.993	-131.9729
16.000000	76.014	-133.0538
16.250000	76.040	-134.1142
16.500000	76.072	-135.1572
16.750000	76.105	-136.1883
17.000000	76.139	-137.2105
17.250000	76.173	-138.2224
17.500000	76.208	-139.2210
17.750000	76.240	-140.1976
18.000000	76.270	-141.1474
18.250000	76.299	-142.0654
18.500000	76.327	-142.9498
18.750000	76.352	-143.8021
19.000000	76.377	-144.6236
19.250000	76.400	-145.4185
19.500000	76.421	-146.1885
19.750000	76.440	-146.9350
20.000000	76.457	-147.6590
20.299999	76.475	-148.4999
20.600000	76.490	-149.3134
20.900000	76.502	-150.1046
21.200001	76.511	-150.8806
21.400000	76.515	-151.3936
21.799999	76.519	-152.4146
22.000000	76.518	-152.9240
22.400000	76.512	-153.9392
22.700001	76.503	-154.6921
23.000000	76.492	-155.4321
23.299999	76.481	-156.1595
23.600000	76.471	-156.8797
24.000000	76.460	-157.8431
24.299999	76.453	-158.5785
24.700001	76.444	-159.5777
25.000000	76.435	-160.3291
25.400000	76.418	-161.3067
25.799999	76.401	-162.2285
26.200001	76.386	-163.0860
26.500000	76.378	-163.6954
26.900000	76.370	-164.4781
27.200001	76.367	-165.0497
27.600000	76.364	-165.7931
28.000000	76.360	-166.5152
28.500000	76.356	-167.3989
29.000000	76.347	-168.2821
29.500000	76.328	-169.1608
30.000000	76.299	-169.9997
30.400000	76.271	-170.6244
30.700001	76.249	-171.0698
31.100000	76.222	-171.6513
31.500000	76.196	-172.2370
32.000000	76.162	-172.9833
32.500000	76.125	-173.7299
33.000000	76.087	-174.4582
33.500000	76.051	-175.1685
34.000000	76.017	-175.8704
34.500000	75.985	-176.5662
35.000000	75.953	-177.2505
35.500000	75.920	-177.9174
36.000000	75.887	-178.5640
36.500000	75.853	-179.1848
37.000000	75.816	-179.7696
37.500000	75.778	179.6882
38.200001	75.732	178.9769
38.700001	75.704	178.4613
39.500000	75.654	177.5714
40.000000	75.614	177.0121
40.599998	75.562	176.3999
41.200001	75.515	175.8476
41.799999	75.478	175.2883
42.500000	75.433	174.5869
43.099998	75.386	174.0023
43.700001	75.338	173.4811
44.400002	75.290	172.9143
45.000000	75.252	172.4141
45.500000	75.218	171.9933
46.200001	75.166	171.4346
46.799999	75.120	170.9861
47.500000	75.071	170.4713
48.200001	75.019	169.9620
48.700001	74.981	169.6091
49.400002	74.929	169.1341
50.000000	74.884	168.7439
50.799999	74.827	168.2437
51.500000	74.779	167.8132
52.200001	74.732	167.3821
53.000000	74.673	166.9031
53.799999	74.616	166.4513
54.500000	74.567	166.0574
55.200001	74.516	165.6561
56.000000	74.454	165.2280
57.000000	74.383	164.7414
58.000000	74.313	164.2601
59.000000	74.249	163.8250
60.000000	74.189	163.3594
60.799999	74.133	162.9959
61.500000	74.085	162.7231
62.200001	74.039	162.4527
63.000000	73.985	162.1341
64.000000	73.916	161.7618
65.000000	73.849	161.3826
66.000000	73.780	161.0176
67.000000	73.714	160.6680
68.000000	73.646	160.3235
69.000000	73.577	160.0313
70.000000	73.513	159.7578
71.000000	73.448	159.4741
72.000000	73.382	159.1946
73.000000	73.317	158.9343
74.000000	73.254	158.6690
75.000000	73.192	158.4130
76.199997	73.118	158.1061
77.500000	73.032	157.8212
78.800003	72.956	157.5865
80.000000	72.883	157.3641
81.199997	72.817	157.1888
82.500000	72.747	156.9150
83.800003	72.666	156.6962
85.000000	72.600	156.4955
86.199997	72.527	156.2710
87.500000	72.451	156.1027
88.500000	72.398	155.9613
90.000000	72.319	155.7675
91.199997	72.259	155.6157
92.500000	72.191	155.4719
93.800003	72.123	155.3503
95.000000	72.062	155.2391
96.199997	72.001	155.1218
97.500000	71.935	155.0003
98.800003	71.871	154.8824
100.000000	71.813	154.7899
101.500000	71.743	154.6733
103.000000	71.672	154.5832
104.400002	71.607	154.5169
106.000000	71.535	154.4215
107.500000	71.464	154.3472
109.000000	71.395	154.2939
110.599998	71.325	154.2447
112.000000	71.266	154.1957
113.800003	71.188	154.1379
115.000000	71.138	154.1077
117.199997	71.045	154.0693
118.000000	71.014	154.0619
120.599998	70.910	154.0260
122.000000	70.855	154.0188
124.099998	70.773	154.0232
125.000000	70.741	154.0360
126.500000	70.690	154.0425
128.000000	70.639	154.0446
131.500000	70.521	154.0917
132.000000	70.506	154.1030
134.000000	70.444	154.1289
136.000000	70.380	154.1760
138.000000	70.322	154.2454
140.000000	70.264	154.2878
143.000000	70.175	154.3732
145.000000	70.119	154.4322
147.500000	70.047	154.5162
150.000000	69.981	154.6117
152.500000	69.912	154.7148
155.000000	69.847	154.8362
157.500000	69.784	154.9572
160.000000	69.720	155.0842
162.500000	69.648	155.2253
165.000000	69.575	155.3479
167.500000	69.501	155.4732
170.000000	69.431	155.6134
172.500000	69.364	155.7645
175.000000	69.296	155.9345
177.500000	69.230	156.0894
180.000000	69.164	156.2401
182.500000	69.106	156.3972
185.000000	69.046	156.5596
187.500000	68.982	156.7493
190.000000	68.919	156.9250
192.500000	68.860	157.0704
195.000000	68.804	157.2331
197.500000	68.752	157.4247
200.000000	68.699	157.5974
203.000000	68.638	157.8065
206.000000	68.583	158.0259
209.000000	68.527	158.2552
212.000000	68.473	158.4845
214.000000	68.438	158.6208
218.000000	68.366	158.9159
220.000000	68.332	159.0838
224.000000	68.269	159.4006
227.000000	68.221	159.6318
230.000000	68.172	159.8572
233.000000	68.127	160.0764
236.000000	68.082	160.3108
240.000000	68.029	160.6345
243.000000	67.987	160.8700
247.000000	67.930	161.1990
250.000000	67.890	161.4384
254.000000	67.838	161.7377
258.000000	67.788	162.0473
262.000000	67.741	162.4039
265.000000	67.708	162.6332
269.000000	67.663	162.9449
272.000000	67.633	163.1834
276.000000	67.592	163.4866
280.000000	67.552	163.8139
285.000000	67.502	164.2089
290.000000	67.452	164.6138
295.000000	67.404	165.0184
300.000000	67.360	165.4204
304.000000	67.325	165.7401
307.000000	67.301	165.9768
311.000000	67.267	166.2930
315.000000	67.239	166.5971
320.000000	67.202	166.9979
325.000000	67.164	167.3685
330.000000	67.129	167.7521
335.000000	67.098	168.1368
340.000000	67.064	168.5055
345.000000	67.029	168.8693
350.000000	66.995	169.2379
355.000000	66.964	169.6077
360.000000	66.935	169.9996
365.000000	66.904	170.3625
370.000000	66.876	170.7349
375.000000	66.848	171.1051
382.000000	66.812	171.6101
387.000000	66.782	171.9515
395.000000	66.745	172.5553
400.000000	66.721	172.9300
406.000000	66.696	173.3427
412.000000	66.672	173.7609
418.000000	66.648	174.1998
425.000000	66.616	174.7115
431.000000	66.590	175.1442
437.000000	66.569	175.5892
444.000000	66.546	176.0732
450.000000	66.527	176.4958
455.000000	66.512	176.8576
462.000000	66.489	177.3485
468.000000	66.472	177.7644
475.000000	66.454	178.2469
482.000000	66.433	178.7361
487.000000	66.419	179.1028
494.000000	66.401	179.6206
500.000000	66.389	-179.9681
508.000000	66.377	-179.4169
515.000000	66.364	-178.9322
522.000000	66.353	-178.4477
530.000000	66.341	-177.9085
538.000000	66.329	-177.3528
545.000000	66.323	-176.8569
552.000000	66.317	-176.3598
560.000000	66.309	-175.8278
570.000000	66.301	-175.1276
580.000000	66.292	-174.4343
590.000000	66.288	-173.7482
600.000000	66.287	-173.0575
608.000000	66.287	-172.5014
615.000000	66.285	-172.0081
622.000000	66.285	-171.5199
630.000000	66.289	-170.9752
640.000000	66.293	-170.3142
650.000000	66.303	-169.6112
660.000000	66.312	-168.9143
670.000000	66.323	-168.1933
680.000000	66.330	-167.4871
690.000000	66.345	-166.7882
700.000000	66.360	-166.0886
710.000000	66.379	-165.3756
720.000000	66.400	-164.6638
730.000000	66.424	-163.9454
740.000000	66.450	-163.2278
750.000000	66.476	-162.5298
762.000000	66.511	-161.6741
775.000000	66.554	-160.7375
788.000000	66.598	-159.8214
800.000000	66.644	-158.9541
812.000000	66.691	-158.1238
825.000000	66.740	-157.2124
838.000000	66.792	-156.3085
850.000000	66.848	-155.4614
862.000000	66.908	-154.6501
875.000000	66.978	-153.7892
885.000000	67.035	-153.1518
900.000000	67.125	-152.2024
912.000000	67.201	-151.4473
925.000000	67.293	-150.6471
938.000000	67.386	-149.8951
950.000000	67.475	-149.2260
962.000000	67.568	-148.5922
975.000000	67.670	-147.9424
988.000000	67.779	-147.3107
1000.000000	67.881	-146.7831
1015.000000	68.023	-146.1662
1030.000000	68.169	-145.5751
1044.000000	68.307	-145.0782
1060.000000	68.461	-144.5840
1075.000000	68.606	-144.1578
1090.000000	68.748	-143.7758
1106.000000	68.893	-143.3859
1120.000000	69.018	-143.0841
1138.000000	69.172	-142.6933
1150.000000	69.270	-142.3915
1172.000000	69.479	-141.6191
1180.000000	69.580	-141.3475
1206.000000	69.927	-141.2806
1220.000000	70.064	-141.5036
1241.000000	70.235	-141.7099
1250.000000	70.301	-141.7540
1265.000000	70.395	-141.8136
1280.000000	70.488	-141.8678
1315.000000	70.713	-142.0620
1320.000000	70.746	-142.1040
1340.000000	70.887	-142.3276
1360.000000	71.036	-142.6630
1380.000000	71.197	-143.2123
1400.000000	71.372	-144.0901
1430.000000	71.611	-146.6863
1450.000000	71.621	-149.8099
1475.000000	71.077	-153.9715
1500.000000	70.066	-152.9168
1525.000000	69.663	-147.4850
1550.000000	69.846	-143.3232
1575.000000	70.142	-141.1360
1600.000000	70.422	-139.9848
1625.000000	70.685	-139.3018
1650.000000	70.919	-138.8529
1675.000000	71.135	-138.5410
1700.000000	71.334	-138.2968
1725.000000	71.526	-138.1117
1750.000000	71.707	-137.9712
1775.000000	71.880	-137.8539
1800.000000	72.050	-137.7655
1825.000000	72.217	-137.7064
1850.000000	72.384	-137.6870
1875.000000	72.548	-137.6847
1900.000000	72.709	-137.7081
1925.000000	72.867	-137.7675
1950.000000	73.026	-137.8533
1975.000000	73.183	-137.9579
2000.000000	73.340	-138.1096
2030.000000	73.518	-138.3317
2060.000000	73.693	-138.5876
2090.000000	73.863	-138.8840
2120.000000	74.032	-139.2362
2140.000000	74.145	-139.5022
2180.000000	74.364	-140.0901
2200.000000	74.471	-140.4143
2240.000000	74.678	-141.1276
2270.000000	74.828	-141.7043
2300.000000	74.974	-142.3372
2330.000000	75.117	-143.0146
2360.000000	75.253	-143.7329
2400.000000	75.422	-144.7505
2430.000000	75.541	-145.5463
2470.000000	75.687	-146.6584
2500.000000	75.788	-147.5240
2540.000000	75.910	-148.7022
2580.000000	76.017	-149.9220
2620.000000	76.111	-151.1478
2650.000000	76.171	-152.0684
2690.000000	76.238	-153.2964
2720.000000	76.282	-154.2111
2760.000000	76.328	-155.4172
2800.000000	76.362	-156.5951
2850.000000	76.388	-158.0174
2900.000000	76.400	-159.3658
2950.000000	76.397	-160.6406
3000.000000	76.384	-161.8219
3040.000000	76.367	-162.7087
3070.000000	76.351	-163.3328
3110.000000	76.327	-164.1157
3150.000000	76.297	-164.8367
3200.000000	76.257	-165.6433
3250.000000	76.216	-166.3711
3300.000000	76.177	-167.0157
3350.000000	76.139	-167.5754
3400.000000	76.101	-168.0561
3450.000000	76.068	-168.4671
3500.000000	76.039	-168.8064
3550.000000	76.015	-169.0896
3600.000000	76.000	-169.3287
3650.000000	75.991	-169.5131
3700.000000	75.991	-169.6540
3750.000000	75.997	-169.7706
3820.000000	76.022	-169.8960
3870.000000	76.052	-169.9685
3950.000000	76.116	-170.0849
4000.000000	76.164	-170.1491
4060.000000	76.230	-170.2292
4120.000000	76.310	-170.3319
4180.000000	76.405	-170.4639
4250.000000	76.533	-170.6682
4310.000000	76.656	-170.9139
4370.000000	76.793	-171.2468
4440.000000	76.969	-171.7582
4500.000000	77.133	-172.3249
4550.000000	77.279	-172.9037
4620.000000	77.488	-173.9007
4680.000000	77.669	-174.9431
4750.000000	77.886	-176.4225
4820.000000	78.100	-178.2049
4870.000000	78.245	-179.6765
4940.000000	78.431	177.9861
5000.000000	78.564	175.7166
5080.000000	78.684	172.3386
5150.000000	78.734	169.0977
5220.000000	78.729	165.6521
5300.000000	78.642	161.5783
5380.000000	78.464	157.5099
5450.000000	78.236	154.0941
5520.000000	77.949	150.9043
5600.000000	77.558	147.6430
5700.000000	76.992	144.2512
5800.000000	76.378	141.6486
5900.000000	75.739	139.7845
6000.000000	75.100	138.6118
6080.000000	74.599	138.1092
6150.000000	74.173	137.9513
6220.000000	73.761	138.0227
6300.000000	73.326	138.3458
6400.000000	72.871	139.0573
6500.000000	72.473	140.0568
6600.000000	72.115	141.2906
6700.000000	71.803	142.6969
6800.000000	71.538	144.2529
6900.000000	71.319	145.8972
7000.000000	71.149	147.6028
7100.000000	71.036	149.3200
7200.000000	70.977	150.9895
7300.000000	70.966	152.5425
7400.000000	71.002	153.9394
7500.000000	71.094	155.1442
7620.000000	71.277	156.2581
7750.000000	71.564	156.8219
7880.000000	71.934	156.4490
8000.000000	72.303	154.9733
8120.000000	72.598	152.0833
8250.000000	72.809	147.0474
8380.000000	72.777	140.1147
8500.000000	72.420	132.8100
8620.000000	71.712	125.6161
8750.000000	70.590	119.0916
8850.000000	69.559	115.4066
9000.000000	67.889	112.1686
9120.000000	66.529	111.2694
9250.000000	65.085	111.6440
9380.000000	63.693	113.1552
9500.000000	62.453	115.4606
9620.000000	61.257	118.4862
9750.000000	59.998	122.6705
9880.000000	58.794	127.8769
10000.000000	57.757	133.6722
10150.000000	56.610	142.4404
10300.000000	55.716	153.1433
10440.000000	55.223	164.7261
10600.000000	55.245	178.8524
10750.000000	55.920	-168.7027
10900.000000	57.139	-158.7660
11060.000000	58.795	-152.3098
11200.000000	60.282	-150.9218
11380.000000	61.828	-154.7180
11500.000000	62.412	-159.5736
11720.000000	62.498	-168.7846
11800.000000	62.287	-171.3075
12060.000000	61.206	-175.2212
12200.000000	60.569	-175.0306
12410.000000	59.681	-172.7524
12500.000000	59.342	-171.2469
12650.000000	58.820	-168.1924
12800.000000	58.382	-164.7092
13150.000000	57.701	-155.7685
13200.000000	57.638	-154.4685
13400.000000	57.467	-149.3086
13600.000000	57.421	-144.3395
13800.000000	57.499	-139.6319
14000.000000	57.704	-135.3497
14300.000000	58.230	-130.1193
14500.000000	58.745	-127.8083
14750.000000	59.545	-127.1486
15000.000000	60.362	-129.9189
15250.000000	60.882	-136.5041
15500.000000	60.750	-145.3672
15750.000000	59.890	-153.2394
16000.000000	58.628	-157.8090
16250.000000	57.469	-158.7529
16500.000000	56.483	-156.8591
16750.000000	55.681	-153.1096
17000.000000	55.101	-148.1150
17250.000000	54.727	-142.3481
17500.000000	54.546	-136.2325
17750.000000	54.551	-130.0142
18000.000000	54.742	-124.0311
18250.000000	55.130	-118.7963
18500.000000	55.685	-114.7409
18750.000000	56.372	-112.9252
19000.000000	57.004	-114.5468
19250.000000	57.224	-120.3499
19500.000000	56.614	-128.7286
19750.000000	55.016	-135.4701
