* Measurement data measured by REW V5.20.13
* Source: C:\Users\marcu\OneDrive\Desktop\audio_db\KZ EDXS Foam R.txt
* Format: Comma/Tab/Space delimited data
* Dated: Jul 16, 2023 7:46:49 PM
* REW Settings:
*  C-weighting compensation: Off
*  Target level: 75.0 dB
* Note: ; Measurement imported from C:\Users\marcu\OneDrive\Desktop\audio_db\KZ EDXS Foam R.txt Format: Comma/Tab/Space delimited data 54613 values loaded, 0 Hz to 20,000 Hz 
* Measurement: KZ EDXS Foam R
* Smoothing: None
* Frequency Step: 1/48 octave
* Start Frequency: 1.000 Hz
*
* Freq(Hz)	SPL(dB)	Phase(degrees)
1.000000	66.421	-67.6295
1.015000	66.230	-68.6187
1.030000	66.030	-69.6028
1.044000	65.834	-70.5164
1.060000	65.599	-71.5541
1.075000	65.368	-72.5204
1.090000	65.125	-73.4800
1.106000	64.852	-74.5279
1.120000	64.595	-75.6389
1.138000	64.241	-77.3436
1.150000	63.991	-78.6268
1.172000	63.508	-81.2206
1.180000	63.325	-82.2247
1.206000	62.707	-85.6309
1.220000	62.362	-87.5116
1.241000	61.833	-90.3201
1.250000	61.602	-91.4997
1.265000	61.214	-93.4072
1.280000	60.824	-95.2126
1.315000	59.910	-98.8419
1.320000	59.780	-99.2757
1.340000	59.265	-100.7499
1.360000	58.759	-101.7476
1.380000	58.267	-102.1902
1.400000	57.792	-101.9989
1.430000	57.120	-100.3514
1.450000	56.706	-98.2312
1.475000	56.224	-94.2359
1.500000	55.725	-88.2466
1.525000	55.203	-80.4225
1.550000	54.669	-71.0723
1.575000	54.135	-60.5047
1.600000	53.611	-49.0285
1.625000	53.108	-36.9524
1.650000	52.638	-24.5850
1.675000	52.212	-12.2350
1.700000	51.841	-0.2112
1.725000	51.536	11.1777
1.750000	51.307	21.6229
1.775000	51.167	30.8159
1.800000	51.127	38.4478
1.825000	51.196	44.2101
1.850000	51.399	48.0514
1.875000	51.756	50.5119
1.900000	52.249	51.7620
1.925000	52.856	51.9504
1.950000	53.557	51.2257
1.975000	54.331	49.7366
2.000000	55.155	47.6317
2.030000	56.184	44.5023
2.060000	57.221	40.9572
2.090000	58.230	37.2533
2.120000	59.174	33.6472
2.140000	59.750	31.4245
2.180000	60.725	27.7567
2.200000	61.103	26.4593
2.240000	61.723	24.1215
2.270000	62.109	22.3038
2.300000	62.435	20.4416
2.330000	62.710	18.5444
2.360000	62.942	16.6218
2.400000	63.196	14.0355
2.430000	63.355	12.0910
2.470000	63.542	9.5103
2.500000	63.673	7.5961
2.540000	63.850	5.0905
2.580000	64.040	2.6502
2.620000	64.205	0.2168
2.650000	64.308	-1.6085
2.690000	64.419	-4.0340
2.720000	64.486	-5.8410
2.760000	64.554	-8.2254
2.800000	64.604	-10.5716
2.850000	64.644	-13.4340
2.900000	64.668	-16.1985
2.950000	64.678	-18.8547
3.000000	64.660	-21.4719
3.040000	64.625	-23.5331
3.070000	64.588	-25.0495
3.110000	64.526	-27.0189
3.150000	64.454	-28.9136
3.200000	64.352	-31.1526
3.250000	64.242	-33.2183
3.300000	64.129	-35.0797
3.350000	63.997	-36.7744
3.400000	63.840	-38.3334
3.450000	63.669	-39.7412
3.500000	63.493	-40.9822
3.550000	63.324	-42.0412
3.600000	63.171	-42.9025
3.650000	63.044	-43.5509
3.700000	62.942	-43.9375
3.750000	62.842	-44.0126
3.820000	62.718	-43.7242
3.870000	62.653	-43.3353
3.950000	62.609	-42.5959
4.000000	62.633	-42.1730
4.060000	62.725	-41.7595
4.120000	62.889	-41.2090
4.180000	63.108	-40.5772
4.250000	63.416	-39.8814
4.310000	63.705	-39.4440
4.370000	64.002	-39.2674
4.440000	64.357	-39.4828
4.500000	64.696	-39.9383
4.550000	64.996	-40.4748
4.620000	65.425	-41.4228
4.680000	65.786	-42.3788
4.750000	66.180	-43.6104
4.820000	66.542	-44.9988
4.870000	66.793	-46.1394
4.940000	67.132	-47.8815
5.000000	67.408	-49.4516
5.080000	67.749	-51.5578
5.150000	68.020	-53.3346
5.220000	68.263	-55.1464
5.300000	68.513	-57.2570
5.380000	68.736	-59.3353
5.450000	68.913	-61.0658
5.520000	69.076	-62.6690
5.600000	69.236	-64.4111
5.700000	69.403	-66.4499
5.800000	69.551	-68.2825
5.900000	69.696	-69.8543
6.000000	69.823	-71.1575
6.080000	69.917	-72.0414
6.150000	70.003	-72.7234
6.220000	70.098	-73.3400
6.300000	70.217	-73.9341
6.400000	70.375	-74.4893
6.500000	70.545	-74.9486
6.600000	70.731	-75.4317
6.700000	70.939	-75.9141
6.800000	71.163	-76.3746
6.900000	71.392	-76.8853
7.000000	71.619	-77.5107
7.100000	71.853	-78.2326
7.200000	72.086	-79.0276
7.300000	72.307	-79.8811
7.400000	72.512	-80.7990
7.500000	72.706	-81.7963
7.620000	72.921	-83.0293
7.750000	73.128	-84.3326
7.880000	73.305	-85.6424
8.000000	73.450	-86.8097
8.120000	73.581	-87.8822
8.250000	73.704	-88.9580
8.380000	73.817	-89.9493
8.500000	73.922	-90.7801
8.620000	74.021	-91.5239
8.750000	74.128	-92.2819
8.850000	74.215	-92.8554
9.000000	74.350	-93.6680
9.120000	74.459	-94.3233
9.250000	74.578	-95.0754
9.380000	74.699	-95.8520
9.500000	74.807	-96.5983
9.620000	74.911	-97.3834
9.750000	75.020	-98.2716
9.880000	75.113	-99.1730
10.000000	75.179	-100.0128
10.150000	75.241	-101.0745
10.300000	75.290	-102.1110
10.440000	75.322	-103.0548
10.600000	75.352	-104.1060
10.750000	75.381	-105.0557
10.900000	75.408	-105.9784
11.060000	75.440	-106.9545
11.200000	75.469	-107.7975
11.380000	75.507	-108.8888
11.500000	75.533	-109.6272
11.720000	75.579	-110.9941
11.800000	75.595	-111.4967
12.060000	75.643	-113.1401
12.200000	75.664	-114.0150
12.410000	75.693	-115.3118
12.500000	75.711	-115.8543
12.650000	75.749	-116.7420
12.800000	75.789	-117.6110
13.150000	75.888	-119.5659
13.200000	75.903	-119.8402
13.400000	75.960	-120.9252
13.600000	76.017	-121.9958
13.800000	76.072	-123.0563
14.000000	76.123	-124.0943
14.300000	76.192	-125.6005
14.500000	76.233	-126.5549
14.750000	76.283	-127.6914
15.000000	76.332	-128.7681
15.250000	76.381	-129.8052
15.500000	76.429	-130.8228
15.750000	76.476	-131.8300
16.000000	76.518	-132.8325
16.250000	76.558	-133.8159
16.500000	76.594	-134.7717
16.750000	76.623	-135.6865
17.000000	76.649	-136.5631
17.250000	76.673	-137.4100
17.500000	76.696	-138.2402
17.750000	76.718	-139.0723
18.000000	76.738	-139.9095
18.250000	76.755	-140.7548
18.500000	76.766	-141.5979
18.750000	76.774	-142.4316
19.000000	76.779	-143.2494
19.250000	76.783	-144.0490
19.500000	76.786	-144.8357
19.750000	76.790	-145.6137
20.000000	76.796	-146.3905
20.299999	76.804	-147.3225
20.600000	76.812	-148.2525
20.900000	76.820	-149.1743
21.200001	76.824	-150.0796
21.400000	76.827	-150.6698
21.799999	76.832	-151.8121
22.000000	76.834	-152.3617
22.400000	76.841	-153.4162
22.700001	76.849	-154.1746
23.000000	76.858	-154.9185
23.299999	76.870	-155.6625
23.600000	76.880	-156.4129
24.000000	76.886	-157.4166
24.299999	76.884	-158.1508
24.700001	76.871	-159.0724
25.000000	76.860	-159.7100
25.400000	76.847	-160.5029
25.799999	76.838	-161.2738
26.200001	76.829	-162.0605
26.500000	76.821	-162.6647
26.900000	76.805	-163.4744
27.200001	76.789	-164.0713
27.600000	76.765	-164.8434
28.000000	76.741	-165.5913
28.500000	76.712	-166.5018
29.000000	76.683	-167.3882
29.500000	76.658	-168.2545
30.000000	76.636	-169.1137
30.400000	76.619	-169.7985
30.700001	76.604	-170.3045
31.100000	76.583	-170.9570
31.500000	76.562	-171.5793
32.000000	76.537	-172.3271
32.500000	76.513	-173.0663
33.000000	76.486	-173.8034
33.500000	76.453	-174.5162
34.000000	76.416	-175.1805
34.500000	76.381	-175.8028
35.000000	76.349	-176.4144
35.500000	76.318	-177.0403
36.000000	76.285	-177.6725
36.500000	76.249	-178.2872
37.000000	76.216	-178.8832
37.500000	76.185	-179.4853
38.200001	76.135	179.6555
38.700001	76.094	179.0828
39.500000	76.035	178.2928
40.000000	76.010	177.8053
40.599998	75.981	177.1605
41.200001	75.941	176.4962
41.799999	75.893	175.8850
42.500000	75.836	175.2468
43.099998	75.791	174.7287
43.700001	75.749	174.2175
44.400002	75.701	173.6085
45.000000	75.657	173.0739
45.500000	75.619	172.6420
46.200001	75.564	172.0820
46.799999	75.520	171.6287
47.500000	75.472	171.1024
48.200001	75.425	170.5835
48.700001	75.389	170.2224
49.400002	75.342	169.7255
50.000000	75.299	169.3088
50.799999	75.242	168.7827
51.500000	75.194	168.3394
52.200001	75.146	167.8909
53.000000	75.088	167.3944
53.799999	75.032	166.9347
54.500000	74.985	166.5344
55.200001	74.937	166.1348
56.000000	74.881	165.7032
57.000000	74.811	165.1731
58.000000	74.736	164.6866
59.000000	74.671	164.2625
60.000000	74.612	163.7470
60.799999	74.552	163.3347
61.500000	74.501	163.0333
62.200001	74.455	162.7451
63.000000	74.402	162.4152
64.000000	74.336	162.0346
65.000000	74.274	161.6390
66.000000	74.205	161.2608
67.000000	74.138	160.9160
68.000000	74.071	160.5708
69.000000	74.004	160.2485
70.000000	73.942	159.9141
71.000000	73.874	159.5872
72.000000	73.808	159.3116
73.000000	73.747	159.0408
74.000000	73.685	158.7621
75.000000	73.620	158.4907
76.199997	73.541	158.2201
77.500000	73.465	157.9210
78.800003	73.388	157.6153
80.000000	73.318	157.3372
81.199997	73.248	157.0944
82.500000	73.175	156.8314
83.800003	73.102	156.5811
85.000000	73.032	156.3474
86.199997	72.959	156.1561
87.500000	72.884	155.9615
88.500000	72.829	155.8315
90.000000	72.751	155.6013
91.199997	72.687	155.4433
92.500000	72.620	155.2472
93.800003	72.549	155.0938
95.000000	72.488	154.9684
96.199997	72.425	154.8452
97.500000	72.360	154.7234
98.800003	72.296	154.5874
100.000000	72.237	154.4620
101.500000	72.163	154.3312
103.000000	72.093	154.2101
104.400002	72.026	154.1134
106.000000	71.953	154.0201
107.500000	71.883	153.9207
109.000000	71.813	153.8504
110.599998	71.745	153.7767
112.000000	71.686	153.7058
113.800003	71.608	153.6259
115.000000	71.555	153.5886
117.199997	71.459	153.5160
118.000000	71.424	153.4962
120.599998	71.319	153.4455
122.000000	71.263	153.4291
124.099998	71.182	153.4003
125.000000	71.148	153.3948
126.500000	71.096	153.3871
128.000000	71.046	153.3699
131.500000	70.926	153.3676
132.000000	70.910	153.3758
134.000000	70.846	153.3928
136.000000	70.781	153.4197
138.000000	70.715	153.4394
140.000000	70.651	153.4798
143.000000	70.562	153.5653
145.000000	70.506	153.6277
147.500000	70.434	153.6915
150.000000	70.361	153.7555
152.500000	70.292	153.8361
155.000000	70.226	153.9188
157.500000	70.158	154.0260
160.000000	70.093	154.1498
162.500000	70.016	154.2447
165.000000	69.939	154.3557
167.500000	69.866	154.4941
170.000000	69.797	154.6225
172.500000	69.725	154.7606
175.000000	69.655	154.8882
177.500000	69.587	155.0322
180.000000	69.521	155.1967
182.500000	69.454	155.3384
185.000000	69.387	155.4788
187.500000	69.326	155.6452
190.000000	69.268	155.8165
192.500000	69.206	155.9597
195.000000	69.145	156.1009
197.500000	69.089	156.2491
200.000000	69.037	156.4276
203.000000	68.974	156.6636
206.000000	68.912	156.8795
209.000000	68.853	157.0732
212.000000	68.799	157.2729
214.000000	68.761	157.4234
218.000000	68.689	157.7217
220.000000	68.652	157.8705
224.000000	68.585	158.1488
227.000000	68.537	158.3708
230.000000	68.490	158.6000
233.000000	68.439	158.8169
236.000000	68.390	159.0515
240.000000	68.330	159.3555
243.000000	68.284	159.5768
247.000000	68.230	159.8800
250.000000	68.188	160.1216
254.000000	68.134	160.4585
258.000000	68.079	160.7582
262.000000	68.029	161.0417
265.000000	67.994	161.2774
269.000000	67.948	161.6095
272.000000	67.915	161.8604
276.000000	67.872	162.1797
280.000000	67.827	162.4778
285.000000	67.775	162.8767
290.000000	67.724	163.2614
295.000000	67.679	163.6620
300.000000	67.633	164.0417
304.000000	67.604	164.3453
307.000000	67.581	164.5623
311.000000	67.545	164.8604
315.000000	67.506	165.1466
320.000000	67.468	165.5236
325.000000	67.431	165.8977
330.000000	67.388	166.2705
335.000000	67.350	166.6187
340.000000	67.315	166.9754
345.000000	67.279	167.3383
350.000000	67.241	167.6935
355.000000	67.207	168.0515
360.000000	67.175	168.4047
365.000000	67.141	168.7515
370.000000	67.111	169.1046
375.000000	67.080	169.4588
382.000000	67.033	169.9682
387.000000	67.002	170.3389
395.000000	66.961	170.9379
400.000000	66.932	171.3047
406.000000	66.901	171.7286
412.000000	66.871	172.1438
418.000000	66.844	172.5878
425.000000	66.810	173.0830
431.000000	66.786	173.5130
437.000000	66.764	173.9471
444.000000	66.735	174.4342
450.000000	66.710	174.8434
455.000000	66.692	175.1846
462.000000	66.667	175.7192
468.000000	66.647	176.1659
475.000000	66.625	176.6446
482.000000	66.601	177.1402
487.000000	66.589	177.4891
494.000000	66.569	177.9797
500.000000	66.555	178.3940
508.000000	66.538	178.9643
515.000000	66.524	179.4301
522.000000	66.512	179.8987
530.000000	66.497	-179.5556
538.000000	66.484	-179.0161
545.000000	66.477	-178.5270
552.000000	66.466	-178.0306
560.000000	66.453	-177.4794
570.000000	66.442	-176.8027
580.000000	66.432	-176.1202
590.000000	66.423	-175.4552
600.000000	66.419	-174.7679
608.000000	66.416	-174.2105
615.000000	66.412	-173.7180
622.000000	66.408	-173.2334
630.000000	66.409	-172.6883
640.000000	66.410	-171.9916
650.000000	66.415	-171.3028
660.000000	66.419	-170.5952
670.000000	66.426	-169.9010
680.000000	66.435	-169.2162
690.000000	66.445	-168.5187
700.000000	66.460	-167.8137
710.000000	66.476	-167.1162
720.000000	66.491	-166.4013
730.000000	66.508	-165.6880
740.000000	66.531	-164.9884
750.000000	66.556	-164.2736
762.000000	66.588	-163.4285
775.000000	66.627	-162.5087
788.000000	66.669	-161.5847
800.000000	66.713	-160.7410
812.000000	66.750	-159.9108
825.000000	66.795	-158.9972
838.000000	66.850	-158.0885
850.000000	66.904	-157.2759
862.000000	66.959	-156.4669
875.000000	67.027	-155.5980
885.000000	67.081	-154.9531
900.000000	67.168	-154.0220
912.000000	67.247	-153.2778
925.000000	67.333	-152.5022
938.000000	67.424	-151.7590
950.000000	67.512	-151.0942
962.000000	67.603	-150.4601
975.000000	67.707	-149.8233
988.000000	67.818	-149.2442
1000.000000	67.927	-148.7290
1015.000000	68.071	-148.1416
1030.000000	68.222	-147.6350
1044.000000	68.366	-147.2232
1060.000000	68.533	-146.9036
1075.000000	68.681	-146.7855
1090.000000	68.787	-146.7871
1106.000000	68.857	-146.4175
1120.000000	68.967	-145.7933
1138.000000	69.172	-145.2673
1150.000000	69.314	-145.1680
1172.000000	69.571	-145.4974
1180.000000	69.646	-145.8899
1206.000000	69.653	-147.1083
1220.000000	69.587	-146.8442
1241.000000	69.575	-145.6090
1250.000000	69.594	-145.0685
1265.000000	69.633	-144.4247
1280.000000	69.706	-144.0698
1315.000000	69.900	-143.2675
1320.000000	69.927	-143.1843
1340.000000	70.031	-142.8953
1360.000000	70.130	-142.6456
1380.000000	70.225	-142.4242
1400.000000	70.314	-142.2286
1430.000000	70.444	-141.9575
1450.000000	70.524	-141.7833
1475.000000	70.625	-141.5592
1500.000000	70.721	-141.3473
1525.000000	70.819	-141.1358
1550.000000	70.917	-140.9376
1575.000000	71.015	-140.7415
1600.000000	71.120	-140.5683
1625.000000	71.249	-140.3887
1650.000000	71.386	-140.2165
1675.000000	71.523	-140.0682
1700.000000	71.661	-139.9360
1725.000000	71.801	-139.8152
1750.000000	71.941	-139.7074
1775.000000	72.081	-139.6290
1800.000000	72.221	-139.5668
1825.000000	72.363	-139.5296
1850.000000	72.504	-139.5087
1875.000000	72.648	-139.5213
1900.000000	72.790	-139.5690
1925.000000	72.931	-139.6217
1950.000000	73.074	-139.6979
1975.000000	73.215	-139.8101
2000.000000	73.355	-139.9609
2030.000000	73.518	-140.1750
2060.000000	73.677	-140.4318
2090.000000	73.834	-140.7250
2120.000000	73.989	-141.0596
2140.000000	74.090	-141.3062
2180.000000	74.292	-141.8833
2200.000000	74.390	-142.1954
2240.000000	74.580	-142.8785
2270.000000	74.716	-143.4265
2300.000000	74.848	-144.0220
2330.000000	74.976	-144.6703
2360.000000	75.099	-145.3355
2400.000000	75.252	-146.2655
2430.000000	75.359	-147.0058
2470.000000	75.492	-148.0359
2500.000000	75.582	-148.8206
2540.000000	75.691	-149.8938
2580.000000	75.787	-150.9965
2620.000000	75.871	-152.1030
2650.000000	75.925	-152.9315
2690.000000	75.985	-154.0286
2720.000000	76.023	-154.8420
2760.000000	76.065	-155.9034
2800.000000	76.098	-156.9388
2850.000000	76.125	-158.1914
2900.000000	76.138	-159.3685
2950.000000	76.140	-160.4722
3000.000000	76.135	-161.4849
3040.000000	76.126	-162.2402
3070.000000	76.117	-162.7719
3110.000000	76.102	-163.4263
3150.000000	76.084	-164.0342
3200.000000	76.061	-164.7133
3250.000000	76.037	-165.3169
3300.000000	76.014	-165.8438
3350.000000	75.996	-166.3048
3400.000000	75.980	-166.6984
3450.000000	75.968	-167.0202
3500.000000	75.962	-167.3001
3550.000000	75.963	-167.5322
3600.000000	75.973	-167.7190
3650.000000	75.990	-167.8705
3700.000000	76.014	-167.9949
3750.000000	76.048	-168.1086
3820.000000	76.108	-168.2445
3870.000000	76.161	-168.3354
3950.000000	76.268	-168.5060
4000.000000	76.346	-168.6258
4060.000000	76.448	-168.7911
4120.000000	76.564	-169.0130
4180.000000	76.692	-169.2773
4250.000000	76.859	-169.6859
4310.000000	77.018	-170.1458
4370.000000	77.188	-170.7130
4440.000000	77.399	-171.5528
4500.000000	77.590	-172.4507
4550.000000	77.753	-173.3405
4620.000000	77.984	-174.8207
4680.000000	78.182	-176.3351
4750.000000	78.406	-178.4113
4820.000000	78.609	179.1595
4870.000000	78.737	177.2028
4940.000000	78.885	174.1646
5000.000000	78.969	171.3160
5080.000000	79.003	167.2524
5150.000000	78.959	163.5215
5220.000000	78.843	159.7292
5300.000000	78.619	155.4998
5380.000000	78.307	151.5457
5450.000000	77.973	148.4211
5520.000000	77.591	145.6663
5600.000000	77.115	143.0139
5700.000000	76.477	140.4638
5800.000000	75.823	138.6929
5900.000000	75.175	137.6226
6000.000000	74.546	137.1482
6080.000000	74.062	137.1382
6150.000000	73.659	137.3581
6220.000000	73.277	137.7603
6300.000000	72.880	138.4137
6400.000000	72.478	139.4708
6500.000000	72.133	140.7436
6600.000000	71.836	142.1856
6700.000000	71.588	143.7416
6800.000000	71.387	145.3672
6900.000000	71.236	147.0320
7000.000000	71.131	148.7142
7100.000000	71.082	150.3505
7200.000000	71.091	151.8547
7300.000000	71.152	153.1464
7400.000000	71.257	154.2041
7500.000000	71.411	154.9438
7620.000000	71.657	155.2750
7750.000000	71.980	154.6909
7880.000000	72.287	152.7175
8000.000000	72.360	150.0541
8120.000000	72.376	149.0333
8250.000000	72.791	145.0948
8380.000000	72.768	137.5457
8500.000000	72.336	130.3810
8620.000000	71.603	123.8503
8750.000000	70.551	118.0276
8850.000000	69.616	114.6125
9000.000000	68.099	111.2213
9120.000000	66.846	109.9271
9250.000000	65.495	109.7881
9380.000000	64.173	110.7751
9500.000000	62.991	112.5460
9620.000000	61.864	115.0431
9750.000000	60.704	118.5161
9880.000000	59.609	122.7381
10000.000000	58.676	127.3460
10150.000000	57.647	134.1456
10300.000000	56.797	142.1531
10440.000000	56.213	150.7543
10600.000000	55.926	161.6068
10750.000000	56.158	171.7407
10900.000000	56.909	-179.8947
11060.000000	58.019	-175.0185
11200.000000	58.898	-174.6712
11380.000000	59.483	-177.7978
11500.000000	59.472	179.7845
11720.000000	58.920	177.5127
11800.000000	58.637	177.5714
12060.000000	57.711	-179.5880
12200.000000	57.267	-176.9227
12410.000000	56.726	-172.0862
12500.000000	56.530	-169.8018
12650.000000	56.232	-165.7977
12800.000000	56.005	-161.7163
13150.000000	55.756	-152.2346
13200.000000	55.745	-150.9277
13400.000000	55.783	-145.9555
13600.000000	55.936	-141.3872
13800.000000	56.194	-137.4771
14000.000000	56.548	-134.3964
14300.000000	57.249	-132.3067
14500.000000	57.712	-133.0755
14750.000000	58.094	-136.8048
15000.000000	58.031	-142.7703
15250.000000	57.392	-148.9924
15500.000000	56.224	-153.4147
15750.000000	54.771	-154.8023
16000.000000	53.297	-153.0653
16250.000000	52.119	-148.5865
16500.000000	51.192	-142.0107
16750.000000	50.451	-133.6457
17000.000000	49.945	-123.8856
17250.000000	49.678	-112.4561
17500.000000	49.748	-99.7388
17750.000000	50.285	-86.2932
18000.000000	51.423	-72.8049
18250.000000	53.138	-61.2909
18500.000000	55.273	-53.1733
18750.000000	57.616	-49.8264
19000.000000	59.878	-51.8013
19250.000000	61.730	-59.2713
19500.000000	62.848	-71.3952
19750.000000	62.979	-85.6771
