* Measurement data measured by REW V5.20.13
* Source: C:\Users\marcu\OneDrive\Desktop\audio_db\KZ HBB PR2 Foam R.txt
* Format: Comma/Tab/Space delimited data
* Dated: Jul 16, 2023 5:57:59 PM
* REW Settings:
*  C-weighting compensation: Off
*  Target level: 75.0 dB
* Note: ; Measurement imported from C:\Users\marcu\OneDrive\Desktop\audio_db\KZ HBB PR2 Foam R.txt Format: Comma/Tab/Space delimited data 54613 values loaded, 0 Hz to 20,000 Hz 
* Measurement: KZ HBB PR2 Foam R
* Smoothing: None
* Frequency Step: 1/48 octave
* Start Frequency: 1.000 Hz
*
* Freq(Hz)	SPL(dB)	Phase(degrees)
1.000000	75.364	-59.4936
1.015000	75.195	-60.3160
1.030000	75.020	-61.1277
1.044000	74.851	-61.8750
1.060000	74.651	-62.7161
1.075000	74.456	-63.4911
1.090000	74.253	-64.2523
1.106000	74.029	-65.0651
1.120000	73.831	-65.8692
1.138000	73.573	-67.0366
1.150000	73.399	-67.8850
1.172000	73.074	-69.5534
1.180000	72.954	-70.1878
1.206000	72.556	-72.3106
1.220000	72.335	-73.4695
1.241000	71.996	-75.1909
1.250000	71.847	-75.9124
1.265000	71.593	-77.0798
1.280000	71.333	-78.1883
1.315000	70.696	-80.4507
1.320000	70.602	-80.7276
1.340000	70.214	-81.6940
1.360000	69.810	-82.4046
1.380000	69.389	-82.8189
1.400000	68.949	-82.8966
1.430000	68.252	-82.2936
1.450000	67.761	-81.3530
1.475000	67.105	-79.4857
1.500000	66.324	-76.7108
1.525000	65.423	-73.1061
1.550000	64.427	-68.7927
1.575000	63.366	-63.8918
1.600000	62.265	-58.5246
1.625000	61.154	-52.8122
1.650000	60.058	-46.8758
1.675000	59.006	-40.8365
1.700000	58.025	-34.8155
1.725000	57.141	-28.9339
1.750000	56.384	-23.3130
1.775000	55.779	-18.0738
1.800000	55.354	-13.3376
1.825000	55.137	-9.2253
1.850000	55.154	-5.6649
1.875000	55.401	-2.2600
1.900000	55.847	0.9969
1.925000	56.465	4.0944
1.950000	57.223	7.0216
1.975000	58.094	9.7672
2.000000	59.046	12.3201
2.030000	60.256	15.1133
2.060000	61.490	17.5935
2.090000	62.698	19.7413
2.120000	63.829	21.5376
2.140000	64.515	22.5303
2.180000	65.654	23.9980
2.200000	66.078	24.4608
2.240000	66.762	24.6251
2.270000	67.187	24.0987
2.300000	67.546	23.1021
2.330000	67.848	21.7132
2.360000	68.100	20.0099
2.400000	68.375	17.3844
2.430000	68.544	15.2505
2.470000	68.738	12.3337
2.500000	68.870	10.1935
2.540000	69.043	7.5511
2.580000	69.224	5.2655
2.620000	69.373	2.9946
2.650000	69.457	1.2450
2.690000	69.537	-1.1373
2.720000	69.576	-2.9530
2.760000	69.602	-5.4004
2.800000	69.604	-7.8639
2.850000	69.579	-10.9431
2.900000	69.533	-13.9944
2.950000	69.472	-17.0000
3.000000	69.378	-20.0382
3.040000	69.279	-22.4905
3.070000	69.192	-24.3324
3.110000	69.061	-26.7794
3.150000	68.914	-29.2021
3.200000	68.712	-32.1731
3.250000	68.493	-35.0522
3.300000	68.262	-37.8101
3.350000	68.006	-40.5306
3.400000	67.721	-43.2491
3.450000	67.415	-45.9112
3.500000	67.094	-48.4621
3.550000	66.767	-50.8471
3.600000	66.441	-53.0117
3.650000	66.124	-54.9010
3.700000	65.805	-56.5021
3.750000	65.458	-57.8880
3.820000	64.953	-59.4750
3.870000	64.605	-60.3578
3.950000	64.120	-61.3389
4.000000	63.890	-61.6842
4.060000	63.709	-61.7668
4.120000	63.597	-61.2547
4.180000	63.549	-60.3255
4.250000	63.573	-59.0284
4.310000	63.663	-58.0034
4.370000	63.817	-57.3071
4.440000	64.095	-57.0588
4.500000	64.443	-57.0468
4.550000	64.790	-57.1699
4.620000	65.326	-57.5706
4.680000	65.797	-58.1493
4.750000	66.317	-59.1291
4.820000	66.802	-60.5173
4.870000	67.156	-61.7790
4.940000	67.654	-63.8185
5.000000	68.070	-65.7255
5.080000	68.590	-68.3382
5.150000	68.998	-70.5624
5.220000	69.370	-72.8825
5.300000	69.759	-75.6495
5.380000	70.111	-78.4242
5.450000	70.388	-80.7637
5.520000	70.637	-82.9521
5.600000	70.879	-85.3818
5.700000	71.129	-88.2885
5.800000	71.334	-90.9380
5.900000	71.509	-93.2247
6.000000	71.635	-95.1945
6.080000	71.711	-96.5518
6.150000	71.771	-97.5748
6.220000	71.834	-98.4397
6.300000	71.907	-99.1983
6.400000	71.985	-99.8123
6.500000	72.069	-100.1793
6.600000	72.181	-100.4314
6.700000	72.322	-100.4949
6.800000	72.484	-100.3803
6.900000	72.664	-100.2613
7.000000	72.860	-100.2856
7.100000	73.081	-100.3690
7.200000	73.314	-100.5205
7.300000	73.542	-100.7913
7.400000	73.756	-101.2264
7.500000	73.967	-101.8072
7.620000	74.204	-102.6189
7.750000	74.421	-103.5610
7.880000	74.601	-104.6273
8.000000	74.740	-105.6233
8.120000	74.851	-106.5324
8.250000	74.936	-107.4708
8.380000	75.002	-108.3191
8.500000	75.055	-108.9727
8.620000	75.094	-109.5125
8.750000	75.134	-110.0181
8.850000	75.171	-110.3684
9.000000	75.231	-110.7937
9.120000	75.285	-111.1325
9.250000	75.352	-111.5579
9.380000	75.428	-112.0105
9.500000	75.498	-112.4925
9.620000	75.567	-113.0655
9.750000	75.643	-113.7686
9.880000	75.703	-114.5327
10.000000	75.736	-115.2948
10.150000	75.755	-116.3165
10.300000	75.758	-117.3438
10.440000	75.743	-118.3120
10.600000	75.717	-119.4077
10.750000	75.692	-120.3940
10.900000	75.666	-121.3555
11.060000	75.644	-122.3669
11.200000	75.630	-123.2344
11.380000	75.618	-124.3638
11.500000	75.615	-125.1336
11.720000	75.617	-126.5739
11.800000	75.618	-127.1116
12.060000	75.626	-128.8895
12.200000	75.628	-129.8405
12.410000	75.631	-131.2503
12.500000	75.639	-131.8303
12.650000	75.663	-132.7699
12.800000	75.692	-133.6712
13.150000	75.776	-135.6070
13.200000	75.790	-135.8709
13.400000	75.850	-136.8925
13.600000	75.915	-137.8847
13.800000	75.984	-138.8585
14.000000	76.051	-139.8072
14.300000	76.144	-141.1743
14.500000	76.199	-142.0246
14.750000	76.263	-143.0076
15.000000	76.323	-143.9014
15.250000	76.379	-144.7290
15.500000	76.432	-145.5245
15.750000	76.479	-146.3042
16.000000	76.517	-147.0836
16.250000	76.546	-147.8404
16.500000	76.565	-148.5602
16.750000	76.570	-149.2177
17.000000	76.571	-149.8146
17.250000	76.571	-150.3696
17.500000	76.574	-150.9106
17.750000	76.579	-151.4889
18.000000	76.585	-152.1219
18.250000	76.588	-152.8276
18.500000	76.584	-153.5938
18.750000	76.573	-154.3993
19.000000	76.553	-155.2238
19.250000	76.528	-156.0364
19.500000	76.500	-156.8264
19.750000	76.472	-157.5850
20.000000	76.451	-158.3106
20.299999	76.438	-159.1536
20.600000	76.439	-159.9911
20.900000	76.455	-160.8574
21.200001	76.480	-161.7883
21.400000	76.496	-162.4514
21.799999	76.517	-163.8380
22.000000	76.516	-164.5225
22.400000	76.493	-165.7593
22.700001	76.463	-166.4882
23.000000	76.439	-167.0186
23.299999	76.431	-167.4099
23.600000	76.441	-167.7521
24.000000	76.476	-168.2649
24.299999	76.503	-168.7368
24.700001	76.524	-169.4407
25.000000	76.525	-169.9670
25.400000	76.517	-170.6343
25.799999	76.506	-171.3193
26.200001	76.483	-172.0958
26.500000	76.448	-172.7189
26.900000	76.372	-173.4905
27.200001	76.304	-173.9292
27.600000	76.226	-174.2842
28.000000	76.194	-174.5201
28.500000	76.220	-175.0547
29.000000	76.258	-176.0994
29.500000	76.244	-177.3975
30.000000	76.185	-178.4777
30.400000	76.144	-179.0697
30.700001	76.132	-179.4247
31.100000	76.139	-179.9294
31.500000	76.154	179.4561
32.000000	76.152	178.6082
32.500000	76.125	177.8582
33.000000	76.094	177.2668
33.500000	76.067	176.7352
34.000000	76.037	176.1935
34.500000	75.998	175.6641
35.000000	75.955	175.1389
35.500000	75.906	174.5610
36.000000	75.836	173.9756
36.500000	75.754	173.5377
37.000000	75.697	173.2589
37.500000	75.683	172.8672
38.200001	75.657	171.7310
38.700001	75.567	170.8217
39.500000	75.378	170.3051
40.000000	75.339	170.3573
40.599998	75.366	170.0709
41.200001	75.368	169.3292
41.799999	75.317	168.6359
42.500000	75.257	168.1384
43.099998	75.226	167.7269
43.700001	75.192	167.2613
44.400002	75.149	166.7516
45.000000	75.117	166.2899
45.500000	75.083	165.8611
46.200001	75.021	165.3230
46.799999	74.973	164.9530
47.500000	74.926	164.4457
48.200001	74.856	163.8857
48.700001	74.795	163.6027
49.400002	74.729	163.3540
50.000000	74.694	163.0531
50.799999	74.630	162.5074
51.500000	74.561	162.1470
52.200001	74.509	161.8383
53.000000	74.451	161.3943
53.799999	74.387	161.0224
54.500000	74.347	160.7055
55.200001	74.301	160.2593
56.000000	74.214	159.8173
57.000000	74.115	159.6158
58.000000	74.062	159.3105
59.000000	73.986	158.8074
60.000000	73.905	158.4574
60.799999	73.863	158.1395
61.500000	73.818	157.7321
62.200001	73.751	157.3954
63.000000	73.684	157.2141
64.000000	73.627	156.9440
65.000000	73.555	156.6310
66.000000	73.485	156.3771
67.000000	73.406	156.0695
68.000000	73.316	155.8267
69.000000	73.235	155.6608
70.000000	73.175	155.4197
71.000000	73.102	155.0495
72.000000	73.027	154.8054
73.000000	72.968	154.4684
74.000000	72.882	154.1503
75.000000	72.817	154.0802
76.199997	72.755	153.7471
77.500000	72.665	153.6842
78.800003	72.600	153.4674
80.000000	72.522	153.3835
81.199997	72.436	153.2277
82.500000	72.344	153.0687
83.800003	72.247	152.9832
85.000000	72.171	152.6682
86.199997	72.110	152.6616
87.500000	72.020	152.0563
88.500000	71.947	152.3638
90.000000	71.902	151.9660
91.199997	71.831	151.9416
92.500000	71.728	151.8773
93.800003	71.692	151.7800
95.000000	71.581	151.7267
96.199997	71.543	151.6808
97.500000	71.458	151.6831
98.800003	71.414	151.4299
100.000000	71.325	151.4354
101.500000	71.271	151.3029
103.000000	71.178	151.3693
104.400002	71.132	151.1858
106.000000	71.019	151.4186
107.500000	70.970	151.1608
109.000000	70.882	151.2809
110.599998	70.801	151.1144
112.000000	70.753	151.1012
113.800003	70.669	151.1666
115.000000	70.618	151.0265
117.199997	70.523	151.0312
118.000000	70.472	151.0644
120.599998	70.350	151.1475
122.000000	70.299	151.3010
124.099998	70.221	151.2518
125.000000	70.181	151.3022
126.500000	70.131	151.2632
128.000000	70.058	151.3546
131.500000	69.935	151.5660
132.000000	69.924	151.6088
134.000000	69.854	151.5706
136.000000	69.785	151.7440
138.000000	69.710	151.7586
140.000000	69.682	151.7277
143.000000	69.592	151.9830
145.000000	69.496	152.1125
147.500000	69.415	152.3127
150.000000	69.350	152.3944
152.500000	69.278	152.5441
155.000000	69.215	152.6498
157.500000	69.162	152.8720
160.000000	69.082	153.1022
162.500000	68.992	153.1284
165.000000	68.905	153.2305
167.500000	68.860	153.5098
170.000000	68.774	153.7605
172.500000	68.686	153.8832
175.000000	68.609	154.2382
177.500000	68.538	154.1631
180.000000	68.462	154.3772
182.500000	68.423	154.7622
185.000000	68.383	154.8857
187.500000	68.287	155.0578
190.000000	68.233	155.2633
192.500000	68.152	155.5150
195.000000	68.103	155.6358
197.500000	68.043	155.8406
200.000000	67.970	155.9998
203.000000	67.916	156.3746
206.000000	67.862	156.5036
209.000000	67.794	156.8671
212.000000	67.738	157.2514
214.000000	67.703	157.3276
218.000000	67.626	157.6507
220.000000	67.588	157.7411
224.000000	67.523	158.1521
227.000000	67.477	158.4185
230.000000	67.407	158.7934
233.000000	67.341	159.0024
236.000000	67.313	159.1641
240.000000	67.287	159.8998
243.000000	67.206	159.9416
247.000000	67.155	160.0854
250.000000	67.109	160.4846
254.000000	67.058	160.7322
258.000000	66.996	161.0535
262.000000	66.973	161.4108
265.000000	66.939	161.7391
269.000000	66.864	162.1456
272.000000	66.815	162.4279
276.000000	66.797	162.7315
280.000000	66.752	163.1112
285.000000	66.722	163.5646
290.000000	66.633	164.0116
295.000000	66.582	164.5133
300.000000	66.545	164.8531
304.000000	66.539	165.2940
307.000000	66.474	165.5354
311.000000	66.443	165.8282
315.000000	66.403	166.3457
320.000000	66.364	166.5040
325.000000	66.309	166.9606
330.000000	66.298	167.5101
335.000000	66.256	167.8654
340.000000	66.208	168.3343
345.000000	66.154	168.8414
350.000000	66.139	169.0955
355.000000	66.113	169.3557
360.000000	66.097	169.9411
365.000000	66.059	170.3957
370.000000	66.013	170.8559
375.000000	65.976	171.1866
382.000000	65.938	171.7335
387.000000	65.922	172.2183
395.000000	65.886	172.8708
400.000000	65.844	173.2601
406.000000	65.826	173.7599
412.000000	65.786	174.3306
418.000000	65.770	174.6567
425.000000	65.751	175.2531
431.000000	65.693	175.7867
437.000000	65.718	176.2452
444.000000	65.693	176.7402
450.000000	65.653	177.3138
455.000000	65.642	177.5744
462.000000	65.619	178.0101
468.000000	65.595	178.5608
475.000000	65.606	179.0132
482.000000	65.583	179.7426
487.000000	65.558	179.9797
494.000000	65.544	-179.4479
500.000000	65.544	-179.1323
508.000000	65.527	-178.4261
515.000000	65.526	-177.8371
522.000000	65.497	-177.2428
530.000000	65.506	-176.5350
538.000000	65.474	-176.2151
545.000000	65.487	-175.5224
552.000000	65.469	-174.8888
560.000000	65.454	-174.6608
570.000000	65.473	-173.8076
580.000000	65.451	-173.1803
590.000000	65.448	-172.1737
600.000000	65.486	-171.5308
608.000000	65.526	-170.9956
615.000000	65.466	-170.3642
622.000000	65.450	-169.9430
630.000000	65.449	-169.3170
640.000000	65.482	-168.4077
650.000000	65.518	-168.0653
660.000000	65.521	-167.3645
670.000000	65.537	-166.6688
680.000000	65.574	-165.9551
690.000000	65.594	-164.9044
700.000000	65.599	-164.4058
710.000000	65.625	-163.5576
720.000000	65.655	-162.8212
730.000000	65.672	-162.0688
740.000000	65.708	-161.5175
750.000000	65.737	-160.6389
762.000000	65.774	-159.6634
775.000000	65.847	-158.7086
788.000000	65.884	-157.8959
800.000000	65.924	-156.9184
812.000000	65.999	-156.1239
825.000000	66.052	-155.3418
838.000000	66.095	-154.3404
850.000000	66.175	-153.4603
862.000000	66.224	-152.7947
875.000000	66.307	-151.9298
885.000000	66.396	-150.8810
900.000000	66.480	-150.2597
912.000000	66.559	-149.3852
925.000000	66.645	-148.6981
938.000000	66.756	-147.8301
950.000000	66.868	-147.2400
962.000000	66.949	-146.4922
975.000000	67.070	-145.9501
988.000000	67.178	-145.3387
1000.000000	67.307	-145.1311
1015.000000	67.464	-144.1451
1030.000000	67.610	-143.5947
1044.000000	67.748	-143.1092
1060.000000	67.902	-142.6519
1075.000000	68.061	-142.3036
1090.000000	68.227	-141.8137
1106.000000	68.383	-141.5597
1120.000000	68.524	-141.4837
1138.000000	68.716	-141.2802
1150.000000	68.824	-141.4056
1172.000000	69.009	-141.4096
1180.000000	69.070	-141.3244
1206.000000	69.247	-141.2543
1220.000000	69.290	-141.3675
1241.000000	69.404	-141.1406
1250.000000	69.430	-140.9742
1265.000000	69.501	-140.6673
1280.000000	69.531	-140.4323
1315.000000	69.712	-139.5930
1320.000000	69.727	-139.7425
1340.000000	69.834	-139.3095
1360.000000	69.969	-139.2165
1380.000000	70.041	-138.8672
1400.000000	70.131	-138.5432
1430.000000	70.285	-138.1593
1450.000000	70.383	-137.7174
1475.000000	70.533	-137.2482
1500.000000	70.656	-136.9420
1525.000000	70.873	-136.6521
1550.000000	71.044	-136.5148
1575.000000	71.234	-136.5680
1600.000000	71.394	-136.8284
1625.000000	71.591	-137.1850
1650.000000	71.777	-137.6804
1675.000000	71.889	-138.1713
1700.000000	71.966	-138.2827
1725.000000	72.066	-138.1445
1750.000000	72.174	-137.9659
1775.000000	72.350	-137.7991
1800.000000	72.492	-137.5084
1825.000000	72.672	-137.3702
1850.000000	72.884	-137.3064
1875.000000	73.067	-137.2624
1900.000000	73.277	-137.4529
1925.000000	73.484	-137.7247
1950.000000	73.658	-138.0755
1975.000000	73.867	-138.5092
2000.000000	74.044	-139.1693
2030.000000	74.253	-139.4904
2060.000000	74.475	-140.1977
2090.000000	74.647	-140.8266
2120.000000	74.833	-141.7099
2140.000000	74.936	-142.1687
2180.000000	75.144	-143.1750
2200.000000	75.234	-143.4945
2240.000000	75.473	-144.0606
2270.000000	75.699	-144.6116
2300.000000	75.981	-145.3935
2330.000000	76.264	-146.8688
2360.000000	76.473	-148.5414
2400.000000	76.666	-151.2065
2430.000000	76.749	-152.9948
2470.000000	76.815	-155.3022
2500.000000	76.862	-156.8976
2540.000000	76.895	-158.8250
2580.000000	76.916	-160.8621
2620.000000	76.902	-162.8927
2650.000000	76.867	-164.2249
2690.000000	76.819	-165.9070
2720.000000	76.751	-167.0406
2760.000000	76.687	-168.4574
2800.000000	76.610	-169.8264
2850.000000	76.514	-171.3021
2900.000000	76.400	-172.9609
2950.000000	76.242	-174.4039
3000.000000	76.027	-175.2323
3040.000000	75.914	-175.8221
3070.000000	75.855	-176.0764
3110.000000	75.783	-176.5094
3150.000000	75.706	-177.3313
3200.000000	75.515	-178.4704
3250.000000	75.247	-178.7173
3300.000000	75.049	-178.2372
3350.000000	74.930	-177.4849
3400.000000	74.873	-176.9240
3450.000000	74.840	-176.2735
3500.000000	74.831	-175.7686
3550.000000	74.833	-175.2497
3600.000000	74.858	-174.6263
3650.000000	74.946	-173.9645
3700.000000	75.041	-173.4634
3750.000000	75.213	-173.0242
3820.000000	75.430	-173.4191
3870.000000	75.578	-173.7529
3950.000000	75.760	-174.2217
4000.000000	75.940	-174.7537
4060.000000	76.033	-174.7462
4120.000000	76.236	-175.3170
4180.000000	76.433	-176.0609
4250.000000	76.684	-177.1500
4310.000000	76.887	-178.0419
4370.000000	77.115	-179.6743
4440.000000	77.364	178.3733
4500.000000	77.559	176.0981
4550.000000	77.633	173.8098
4620.000000	77.666	170.9619
4680.000000	77.659	168.8636
4750.000000	77.688	166.7048
4820.000000	77.761	164.0231
4870.000000	77.810	161.5573
4940.000000	77.759	157.7863
5000.000000	77.560	154.4074
5080.000000	77.142	150.8292
5150.000000	76.720	148.7768
5220.000000	76.451	147.5682
5300.000000	76.249	145.2737
5380.000000	75.893	141.8233
5450.000000	75.484	138.9641
5520.000000	74.934	136.4961
5600.000000	74.240	133.8794
5700.000000	73.121	131.7724
5800.000000	71.839	132.5810
5900.000000	70.933	137.2679
6000.000000	70.440	140.7032
6080.000000	70.135	142.6318
6150.000000	69.791	144.2730
6220.000000	69.498	146.8748
6300.000000	69.205	149.0052
6400.000000	69.035	151.7852
6500.000000	68.805	154.7543
6600.000000	68.680	157.8063
6700.000000	68.586	160.6392
6800.000000	68.578	163.3429
6900.000000	68.516	166.1762
7000.000000	68.550	168.5670
7100.000000	68.576	171.1281
7200.000000	68.511	173.3113
7300.000000	68.613	176.9914
7400.000000	68.751	179.6763
7500.000000	68.867	-176.9883
7620.000000	69.183	-171.7800
7750.000000	69.804	-167.9789
7880.000000	70.496	-164.7236
8000.000000	71.310	-162.3701
8120.000000	72.221	-160.6517
8250.000000	73.270	-162.0814
8380.000000	74.162	-166.3432
8500.000000	74.571	-171.1704
8620.000000	74.864	-175.5320
8750.000000	75.119	179.7153
8850.000000	75.194	175.9941
9000.000000	75.301	170.3258
9120.000000	75.347	165.8354
9250.000000	75.366	160.0576
9380.000000	75.199	153.3935
9500.000000	74.865	147.3698
9620.000000	74.286	140.9445
9750.000000	73.415	134.9894
9880.000000	72.338	131.2644
10000.000000	71.280	129.6437
10150.000000	70.371	129.4280
10300.000000	69.684	129.8939
10440.000000	69.133	130.1603
10600.000000	68.574	129.6425
10750.000000	68.221	128.9841
10900.000000	67.775	127.3799
11060.000000	67.358	124.6997
11200.000000	66.800	120.3912
11380.000000	65.491	114.7060
11500.000000	64.131	111.9900
11720.000000	61.166	111.6762
11800.000000	60.083	115.5511
12060.000000	56.915	130.7964
12200.000000	55.894	146.2433
12410.000000	55.813	163.1219
12500.000000	55.584	172.2014
12650.000000	56.319	179.9896
12800.000000	56.623	-170.9331
13150.000000	57.637	-160.1033
13200.000000	57.431	-158.9042
13400.000000	57.837	-151.5429
13600.000000	58.317	-145.2425
13800.000000	59.042	-137.8782
14000.000000	59.965	-131.8153
14300.000000	62.064	-124.5801
14500.000000	63.468	-121.8753
14750.000000	65.870	-123.8233
15000.000000	68.512	-135.2991
15250.000000	69.865	-160.3114
15500.000000	68.539	172.3625
15750.000000	65.399	157.0733
16000.000000	61.963	154.4913
16250.000000	59.509	157.2882
16500.000000	57.777	167.2867
16750.000000	57.002	179.7217
17000.000000	56.450	-168.1142
17250.000000	57.553	-153.8712
17500.000000	59.305	-145.3758
17750.000000	61.416	-141.5422
18000.000000	62.582	-142.6492
18250.000000	63.385	-149.7668
18500.000000	63.415	-150.2558
18750.000000	63.836	-150.0838
19000.000000	64.810	-148.7108
19250.000000	65.507	-147.1593
19500.000000	66.419	-149.5359
19750.000000	67.171	-153.9824
