* Measurement data measured by REW V5.30 beta 3
* Source: Microphone (2- USB Sound Device        ), MICROPHONE (Master Volume), R, volume: 0.660. Timing signal peak level -19.5 dBFS, measurement signal peak level -14.6 dBFS
* Format: 256k Log Swept Sine, 1 sweep at -12.0 dBFS using an acoustic timing reference
* Dated: Dec 1, 2023 11:25:10 PM
* REW Settings:
*  C-weighting compensation: Off
*  Target level: 75.0 dB
* Note: Delay 0.0225 ms (7.7 mm, 0.3 in) using estimated IR delay relative to Acoustic reference played from SPEAKER R with no timing offset
* Measurement: R EJ07 RIGHT Dec 1
* Smoothing: None
* Frequency Step: 1/48 octave
* Start Frequency: 1.000 Hz
*
* Freq(Hz) SPL(dB) Phase(degrees)
1.000000 122.007 -42.3050
1.015000 121.819 -42.3761
1.030000 121.630 -42.3714
1.044000 121.455 -42.2939
1.060000 121.255 -42.1126
1.075000 121.068 -41.8472
1.090000 120.884 -41.4836
1.106000 120.686 -40.9800
1.120000 120.502 -40.4326
1.138000 120.250 -39.5893
1.150000 120.072 -38.9454
1.172000 119.732 -37.6092
1.180000 119.605 -37.0770
1.206000 119.181 -35.1939
1.220000 118.949 -34.0924
1.241000 118.600 -32.3413
1.250000 118.451 -31.5587
1.265000 118.205 -30.2173
1.280000 117.964 -28.8358
1.315000 117.430 -25.4969
1.320000 117.358 -25.0106
1.340000 117.083 -23.0531
1.360000 116.832 -21.0883
1.380000 116.611 -19.1333
1.400000 116.422 -17.2052
1.430000 116.210 -14.4009
1.450000 116.123 -12.6148
1.475000 116.082 -10.4779
1.500000 116.116 -8.2303
1.525000 116.218 -5.8483
1.550000 116.379 -3.3684
1.575000 116.592 -0.8269
1.600000 116.848 1.7395
1.625000 117.138 4.2944
1.650000 117.455 6.8014
1.675000 117.790 9.2239
1.700000 118.136 11.5256
1.725000 118.484 13.6698
1.750000 118.825 15.6202
1.775000 119.152 17.3402
1.800000 119.457 18.7934
1.825000 119.731 19.9434
1.850000 119.980 20.7717
1.875000 120.233 21.3177
1.900000 120.491 21.6093
1.925000 120.752 21.6735
1.950000 121.013 21.5371
1.975000 121.274 21.2267
2.000000 121.532 20.7694
2.030000 121.837 20.0643
2.060000 122.132 19.2323
2.090000 122.417 18.3200
2.120000 122.687 17.3735
2.140000 122.857 16.7465
2.180000 123.172 15.5637
2.200000 123.314 15.0343
2.240000 123.574 13.9117
2.270000 123.750 12.9610
2.300000 123.911 11.9316
2.330000 124.059 10.8367
2.360000 124.194 9.6896
2.400000 124.357 8.1015
2.430000 124.467 6.8836
2.470000 124.600 5.2490
2.500000 124.691 4.0321
2.540000 124.802 2.4467
2.580000 124.903 0.9204
2.620000 124.987 -0.6258
2.650000 125.038 -1.8052
2.690000 125.091 -3.3928
2.720000 125.121 -4.5872
2.760000 125.149 -6.1733
2.800000 125.165 -7.7391
2.850000 125.172 -9.6466
2.900000 125.168 -11.4731
2.950000 125.155 -13.2005
3.000000 125.121 -14.8884
3.040000 125.080 -16.2118
3.070000 125.042 -17.1825
3.110000 124.985 -18.4399
3.150000 124.922 -19.6466
3.200000 124.838 -21.0691
3.250000 124.754 -22.3789
3.300000 124.674 -23.5577
3.350000 124.587 -24.6085
3.400000 124.489 -25.5469
3.450000 124.385 -26.3799
3.500000 124.282 -27.1143
3.550000 124.186 -27.7572
3.600000 124.104 -28.3154
3.650000 124.040 -28.7958
3.700000 123.996 -29.1751
3.750000 123.961 -29.4045
3.820000 123.931 -29.5444
3.870000 123.924 -29.5690
3.950000 123.947 -29.5881
4.000000 123.985 -29.6497
4.060000 124.059 -29.8092
4.120000 124.167 -29.9497
4.180000 124.304 -30.0864
4.250000 124.488 -30.2938
4.310000 124.660 -30.5575
4.370000 124.836 -30.9421
4.440000 125.045 -31.5799
4.500000 125.241 -32.2602
4.550000 125.414 -32.9054
4.620000 125.660 -33.9065
4.680000 125.870 -34.8353
4.750000 126.102 -35.9752
4.820000 126.321 -37.1947
4.870000 126.475 -38.1428
4.940000 126.685 -39.5421
5.000000 126.859 -40.7750
5.080000 127.079 -42.4111
5.150000 127.259 -43.7909
5.220000 127.426 -45.1771
5.300000 127.602 -46.7678
5.380000 127.769 -48.3236
5.450000 127.909 -49.6217
5.520000 128.046 -50.8341
5.600000 128.192 -52.1404
5.700000 128.365 -53.6692
5.800000 128.537 -55.0829
5.900000 128.718 -56.3758
6.000000 128.903 -57.5163
6.080000 129.053 -58.3516
6.150000 129.190 -59.0554
6.220000 129.332 -59.7577
6.300000 129.504 -60.5442
6.400000 129.730 -61.4745
6.500000 129.963 -62.4032
6.600000 130.198 -63.3918
6.700000 130.438 -64.4423
6.800000 130.683 -65.5332
6.900000 130.923 -66.6718
7.000000 131.151 -67.8677
7.100000 131.372 -69.1347
7.200000 131.585 -70.4449
7.300000 131.782 -71.7630
7.400000 131.962 -73.0809
7.500000 132.126 -74.4232
7.620000 132.305 -76.0090
7.750000 132.475 -77.6294
7.880000 132.617 -79.1802
8.000000 132.733 -80.5177
8.120000 132.838 -81.7253
8.250000 132.935 -82.9004
8.380000 133.027 -83.9475
8.500000 133.113 -84.7967
8.620000 133.197 -85.5249
8.750000 133.291 -86.2285
8.850000 133.371 -86.7333
9.000000 133.500 -87.3960
9.120000 133.609 -87.9030
9.250000 133.736 -88.4699
9.380000 133.872 -89.0317
9.500000 133.999 -89.5786
9.620000 134.128 -90.1718
9.750000 134.270 -90.8524
9.880000 134.409 -91.5746
10.000000 134.533 -92.2845
10.150000 134.683 -93.2220
10.300000 134.823 -94.1874
10.440000 134.944 -95.1207
10.600000 135.072 -96.1971
10.750000 135.180 -97.1957
10.900000 135.279 -98.1869
11.060000 135.377 -99.2061
11.200000 135.455 -100.0679
11.380000 135.552 -101.1325
11.500000 135.615 -101.8089
11.720000 135.729 -103.0068
11.800000 135.772 -103.4339
12.060000 135.913 -104.7997
12.200000 135.991 -105.5529
12.410000 136.107 -106.7054
12.500000 136.155 -107.2156
12.650000 136.232 -108.0909
12.800000 136.304 -108.9760
13.150000 136.437 -111.0437
13.200000 136.452 -111.3230
13.400000 136.503 -112.4038
13.600000 136.548 -113.3666
13.800000 136.588 -114.1823
14.000000 136.640 -114.8755
14.300000 136.748 -115.7328
14.500000 136.851 -116.2858
14.750000 137.005 -117.1096
15.000000 137.180 -118.1520
15.250000 137.346 -119.4902
15.500000 137.484 -121.0432
15.750000 137.581 -122.7386
16.000000 137.626 -124.4249
16.250000 137.629 -125.9553
16.500000 137.601 -127.2634
16.750000 137.559 -128.2790
17.000000 137.524 -129.0429
17.250000 137.504 -129.6082
17.500000 137.509 -130.0509
17.750000 137.536 -130.4659
18.000000 137.582 -130.8868
18.250000 137.644 -131.3480
18.500000 137.716 -131.8667
18.750000 137.796 -132.4565
19.000000 137.883 -133.1301
19.250000 137.970 -133.9070
19.500000 138.052 -134.7793
19.750000 138.125 -135.7369
20.000000 138.182 -136.7358
20.299999 138.231 -137.9247
20.600000 138.265 -139.0507
20.900000 138.293 -140.0875
21.200001 138.323 -141.0585
21.400000 138.345 -141.7031
21.799999 138.389 -143.0224
22.000000 138.405 -143.6977
22.400000 138.416 -145.0240
22.700001 138.407 -145.9128
23.000000 138.391 -146.6459
23.299999 138.384 -147.2342
23.600000 138.393 -147.7407
24.000000 138.430 -148.4222
24.299999 138.467 -149.0204
24.700001 138.510 -149.9464
25.000000 138.526 -150.6817
25.400000 138.526 -151.6193
25.799999 138.514 -152.4442
26.200001 138.503 -153.1764
26.500000 138.498 -153.7071
26.900000 138.493 -154.4333
27.200001 138.487 -154.9992
27.600000 138.472 -155.7647
28.000000 138.451 -156.5117
28.500000 138.424 -157.4031
29.000000 138.404 -158.2879
29.500000 138.390 -159.2254
30.000000 138.372 -160.2271
30.400000 138.353 -161.0370
30.700001 138.335 -161.6242
31.100000 138.313 -162.3635
31.500000 138.298 -163.0626
32.000000 138.289 -163.9240
32.500000 138.288 -164.8057
33.000000 138.287 -165.6858
33.500000 138.284 -166.5152
34.000000 138.286 -167.2741
34.500000 138.297 -167.9933
35.000000 138.315 -168.7177
35.500000 138.331 -169.4674
36.000000 138.337 -170.2183
36.500000 138.333 -170.9218
37.000000 138.322 -171.5413
37.500000 138.312 -172.0843
38.200001 138.303 -172.8016
38.700001 138.295 -173.3312
39.500000 138.268 -174.1759
40.000000 138.243 -174.6526
40.599998 138.217 -175.1784
41.200001 138.198 -175.7376
41.799999 138.173 -176.3725
42.500000 138.124 -177.0957
43.099998 138.081 -177.6018
43.700001 138.055 -178.0981
44.400002 138.026 -178.8130
45.000000 137.980 -179.4428
45.500000 137.934 -179.8455
46.200001 137.891 179.7285
46.799999 137.876 179.2827
47.500000 137.843 178.6269
48.200001 137.787 178.0781
48.700001 137.755 177.7946
49.400002 137.733 177.3609
50.000000 137.716 176.8537
50.799999 137.671 176.1360
51.500000 137.626 175.5751
52.200001 137.585 175.0132
53.000000 137.534 174.3608
53.799999 137.478 173.7643
54.500000 137.432 173.3115
55.200001 137.394 172.9071
56.000000 137.359 172.4313
57.000000 137.308 171.8679
58.000000 137.262 171.3941
59.000000 137.218 170.9435
60.000000 137.178 170.4550
60.799999 137.128 170.0477
61.500000 137.089 169.8070
62.200001 137.070 169.4560
63.000000 137.015 168.8734
64.000000 136.926 168.5592
65.000000 136.901 168.0426
66.000000 136.795 167.4503
67.000000 136.751 167.4330
68.000000 136.737 166.7319
69.000000 136.627 166.3241
70.000000 136.599 166.2193
71.000000 136.551 165.5667
72.000000 136.451 165.3324
73.000000 136.424 165.1035
74.000000 136.353 164.5529
75.000000 136.287 164.4418
76.199997 136.251 163.8336
77.500000 136.142 163.7124
78.800003 136.146 163.1454
80.000000 135.999 162.8304
81.199997 135.985 163.0054
82.500000 135.938 162.2806
83.800003 135.788 161.9474
85.000000 135.737 162.2033
86.199997 135.722 161.6052
87.500000 135.600 161.3844
88.500000 135.575 161.2628
90.000000 135.464 160.9072
91.199997 135.409 160.9256
92.500000 135.367 160.7265
93.800003 135.317 160.3875
95.000000 135.234 160.1271
96.199997 135.166 160.2220
97.500000 135.142 160.1784
98.800003 135.095 159.8953
100.000000 135.017 159.5902
101.500000 134.897 159.6745
103.000000 134.877 159.6923
104.400002 134.824 159.2898
106.000000 134.712 159.2426
107.500000 134.660 159.5328
109.000000 134.631 159.4693
110.599998 134.546 159.4717
112.000000 134.510 159.3594
113.800003 134.394 159.1634
115.000000 134.332 159.2443
117.199997 134.254 159.4014
118.000000 134.243 159.4227
120.599998 134.089 159.1884
122.000000 134.026 159.4295
124.099998 133.959 159.5992
125.000000 133.933 159.6944
126.500000 133.901 159.8040
128.000000 133.866 159.8544
131.500000 133.758 159.9646
132.000000 133.739 159.9444
134.000000 133.682 160.1549
136.000000 133.598 160.2642
138.000000 133.482 160.5202
140.000000 133.398 160.7358
143.000000 133.355 160.8652
145.000000 133.289 160.9971
147.500000 133.225 161.4596
150.000000 133.115 161.9610
152.500000 133.017 162.1113
155.000000 132.964 162.1773
157.500000 132.933 162.4451
160.000000 132.866 162.7907
162.500000 132.775 162.8929
165.000000 132.734 163.1183
167.500000 132.744 163.6328
170.000000 132.734 163.9283
172.500000 132.726 164.0424
175.000000 132.706 164.1768
177.500000 132.667 164.4548
180.000000 132.632 164.7686
182.500000 132.614 164.9446
185.000000 132.618 165.3574
187.500000 132.617 165.8563
190.000000 132.561 166.2456
192.500000 132.535 166.3625
195.000000 132.528 166.8547
197.500000 132.435 166.9248
200.000000 132.465 166.6737
203.000000 132.485 167.2581
206.000000 132.431 168.1029
209.000000 132.332 168.1408
212.000000 132.360 168.2509
214.000000 132.376 168.3443
218.000000 132.334 169.3417
220.000000 132.339 169.0684
224.000000 132.381 169.6327
227.000000 132.297 170.0782
230.000000 132.325 170.0842
233.000000 132.313 170.2685
236.000000 132.370 170.3067
240.000000 132.366 170.8912
243.000000 132.353 170.9021
247.000000 132.413 171.2410
250.000000 132.372 171.5385
254.000000 132.416 171.7995
258.000000 132.380 172.2710
262.000000 132.429 172.4290
265.000000 132.411 172.6781
269.000000 132.460 172.7939
272.000000 132.446 172.8449
276.000000 132.474 173.3254
280.000000 132.508 173.2667
285.000000 132.482 173.6839
290.000000 132.523 174.0017
295.000000 132.555 174.1721
300.000000 132.528 174.4465
304.000000 132.571 174.7564
307.000000 132.591 174.7872
311.000000 132.585 174.8142
315.000000 132.613 174.9409
320.000000 132.616 175.1526
325.000000 132.598 175.4009
330.000000 132.612 175.6688
335.000000 132.625 176.0107
340.000000 132.626 176.1975
345.000000 132.647 176.2926
350.000000 132.659 176.4388
355.000000 132.663 176.4428
360.000000 132.682 176.4468
365.000000 132.719 176.4529
370.000000 132.756 176.8843
375.000000 132.751 177.1198
382.000000 132.755 177.1187
387.000000 132.777 177.1653
395.000000 132.769 177.3008
400.000000 132.801 177.4619
406.000000 132.792 177.6294
412.000000 132.804 177.7719
418.000000 132.790 177.9024
425.000000 132.810 178.0181
431.000000 132.815 178.1686
437.000000 132.836 178.2424
444.000000 132.833 178.1838
450.000000 132.851 178.3450
455.000000 132.860 178.4599
462.000000 132.872 178.5527
468.000000 132.868 178.7156
475.000000 132.884 178.8925
482.000000 132.885 178.9469
487.000000 132.908 179.0334
494.000000 132.912 179.1125
500.000000 132.922 179.1402
508.000000 132.930 179.3477
515.000000 132.943 179.5070
522.000000 132.951 179.6097
530.000000 132.974 179.7260
538.000000 132.991 179.7808
545.000000 132.998 179.8834
552.000000 133.017 179.9371
560.000000 133.044 -179.9079
570.000000 133.060 -179.7407
580.000000 133.067 -179.5208
590.000000 133.064 -179.3737
600.000000 133.070 -179.1697
608.000000 133.086 -179.0545
615.000000 133.106 -178.9096
622.000000 133.105 -178.8468
630.000000 133.140 -178.6595
640.000000 133.156 -178.5270
650.000000 133.180 -178.3561
660.000000 133.204 -178.0715
670.000000 133.224 -177.9099
680.000000 133.239 -177.7621
690.000000 133.260 -177.5212
700.000000 133.273 -177.3253
710.000000 133.296 -177.1680
720.000000 133.313 -176.9069
730.000000 133.338 -176.7244
740.000000 133.361 -176.5199
750.000000 133.381 -176.3105
762.000000 133.405 -176.0309
775.000000 133.437 -175.7208
788.000000 133.480 -175.4350
800.000000 133.519 -175.1884
812.000000 133.575 -174.9358
825.000000 133.629 -174.6989
838.000000 133.681 -174.4170
850.000000 133.727 -174.1836
862.000000 133.776 -173.9291
875.000000 133.832 -173.6684
885.000000 133.868 -173.4506
900.000000 133.935 -173.2095
912.000000 133.995 -173.0302
925.000000 134.064 -172.8490
938.000000 134.134 -172.6708
950.000000 134.202 -172.5341
962.000000 134.274 -172.4346
975.000000 134.350 -172.3022
988.000000 134.429 -172.2085
1000.000000 134.505 -172.1597
1015.000000 134.610 -172.0844
1030.000000 134.712 -172.1243
1044.000000 134.820 -172.1614
1060.000000 134.933 -172.2219
1075.000000 135.035 -172.3203
1090.000000 135.130 -172.4709
1106.000000 135.226 -172.6265
1120.000000 135.313 -172.7847
1138.000000 135.417 -173.0322
1150.000000 135.484 -173.2334
1172.000000 135.599 -173.6015
1180.000000 135.640 -173.7662
1206.000000 135.776 -174.2889
1220.000000 135.850 -174.6008
1241.000000 135.955 -175.0757
1250.000000 135.997 -175.3125
1265.000000 136.069 -175.6664
1280.000000 136.136 -176.0345
1315.000000 136.284 -176.9414
1320.000000 136.303 -177.0637
1340.000000 136.376 -177.5885
1360.000000 136.447 -178.1149
1380.000000 136.508 -178.6149
1400.000000 136.567 -179.1436
1430.000000 136.653 -179.9217
1450.000000 136.714 179.5295
1475.000000 136.790 178.8871
1500.000000 136.860 178.2194
1525.000000 136.928 177.5596
1550.000000 136.990 176.9496
1575.000000 137.048 176.2862
1600.000000 137.115 175.6446
1625.000000 137.182 175.0047
1650.000000 137.245 174.3427
1675.000000 137.308 173.7018
1700.000000 137.365 173.0360
1725.000000 137.417 172.3617
1750.000000 137.466 171.7237
1775.000000 137.518 171.0885
1800.000000 137.575 170.3542
1825.000000 137.632 169.6499
1850.000000 137.696 168.9627
1875.000000 137.758 168.2294
1900.000000 137.820 167.4756
1925.000000 137.883 166.7497
1950.000000 137.945 165.9760
1975.000000 138.000 165.2398
2000.000000 138.057 164.4419
2030.000000 138.127 163.4724
2060.000000 138.197 162.4767
2090.000000 138.257 161.4478
2120.000000 138.322 160.4140
2140.000000 138.367 159.7371
2180.000000 138.451 158.2460
2200.000000 138.484 157.5078
2240.000000 138.563 155.9964
2270.000000 138.613 154.8098
2300.000000 138.667 153.6459
2330.000000 138.712 152.3926
2360.000000 138.759 151.1256
2400.000000 138.811 149.5261
2430.000000 138.846 148.2092
2470.000000 138.873 146.5498
2500.000000 138.894 145.3310
2540.000000 138.916 143.5713
2580.000000 138.942 141.8553
2620.000000 138.952 140.1311
2650.000000 138.960 138.8546
2690.000000 138.971 137.1188
2720.000000 138.984 135.7486
2760.000000 138.973 134.0042
2800.000000 138.957 132.2416
2850.000000 138.929 129.9926
2900.000000 138.911 127.7273
2950.000000 138.876 125.5518
3000.000000 138.824 123.4433
3040.000000 138.793 121.7563
3070.000000 138.772 120.4573
3110.000000 138.725 118.7797
3150.000000 138.683 117.2159
3200.000000 138.620 115.2167
3250.000000 138.571 113.3346
3300.000000 138.511 111.3866
3350.000000 138.448 109.5083
3400.000000 138.389 107.7070
3450.000000 138.307 105.9113
3500.000000 138.259 104.1993
3550.000000 138.202 102.4203
3600.000000 138.165 100.7451
3650.000000 138.104 99.0112
3700.000000 138.065 97.3410
3750.000000 138.012 95.6595
3820.000000 137.971 93.2839
3870.000000 137.950 91.5931
3950.000000 137.898 88.9881
4000.000000 137.895 87.2081
4060.000000 137.859 85.1578
4120.000000 137.823 83.0032
4180.000000 137.847 80.6728
4250.000000 137.826 77.9381
4310.000000 137.784 75.5285
4370.000000 137.777 72.8167
4440.000000 137.680 69.6310
4500.000000 137.637 66.9586
4550.000000 137.554 64.1979
4620.000000 137.414 61.2016
4680.000000 137.259 58.0573
4750.000000 137.077 54.6872
4820.000000 136.837 51.3219
4870.000000 136.630 49.0165
4940.000000 136.275 46.2649
5000.000000 135.959 44.1322
5080.000000 135.593 41.3595
5150.000000 135.188 39.7130
5220.000000 134.810 38.2003
5300.000000 134.430 36.6530
5380.000000 134.043 35.5200
5450.000000 133.716 34.7482
5520.000000 133.403 34.1107
5600.000000 133.083 33.6641
5700.000000 132.707 33.4013
5800.000000 132.392 33.3110
5900.000000 132.130 33.5330
6000.000000 131.935 33.8573
6080.000000 131.813 34.2029
6150.000000 131.736 34.4752
6220.000000 131.683 34.8329
6300.000000 131.659 35.1618
6400.000000 131.688 35.5677
6500.000000 131.767 35.8962
6600.000000 131.922 36.0273
6700.000000 132.132 35.8700
6800.000000 132.403 35.3192
6900.000000 132.731 34.3407
7000.000000 133.094 32.6354
7100.000000 133.482 30.3647
7200.000000 133.866 27.2625
7300.000000 134.231 23.1708
7400.000000 134.495 18.1628
7500.000000 134.629 12.3394
7620.000000 134.545 4.7416
7750.000000 134.132 -3.2905
7880.000000 133.447 -10.2366
8000.000000 132.663 -15.2045
8120.000000 131.816 -18.7777
8250.000000 130.908 -21.2782
8380.000000 130.067 -22.6334
8500.000000 129.345 -23.0381
8620.000000 128.697 -23.1934
8750.000000 128.076 -22.5735
8850.000000 127.657 -22.0452
9000.000000 127.145 -20.9655
9120.000000 126.782 -20.1312
9250.000000 126.415 -19.3075
9380.000000 126.109 -18.1597
9500.000000 125.896 -17.1671
9620.000000 125.719 -16.6927
9750.000000 125.520 -16.4310
9880.000000 125.271 -16.1300
10000.000000 125.017 -15.9548
10150.000000 124.637 -15.4093
10300.000000 124.182 -14.4825
10440.000000 123.726 -12.5662
10600.000000 123.262 -9.0054
10750.000000 122.942 -4.6617
10900.000000 122.807 0.1018
11060.000000 122.874 5.7152
11200.000000 123.145 10.4292
11380.000000 123.684 15.5177
11500.000000 124.162 18.2194
11720.000000 125.144 21.4489
11800.000000 125.561 22.1330
12060.000000 126.752 21.5070
12200.000000 127.308 19.9998
12410.000000 127.890 16.4282
12500.000000 128.049 14.7390
12650.000000 128.162 11.8196
12800.000000 128.145 9.3806
13150.000000 127.864 6.1636
13200.000000 127.795 5.9102
13400.000000 127.639 5.7646
13600.000000 127.560 6.3209
13800.000000 127.596 6.7682
14000.000000 127.767 7.3089
14300.000000 128.223 6.9466
14500.000000 128.640 5.4031
14750.000000 129.268 0.7306
15000.000000 129.622 -7.5475
15250.000000 129.272 -18.8275
15500.000000 127.915 -28.4304
15750.000000 126.195 -31.2443
16000.000000 124.758 -30.7717
16250.000000 123.673 -28.4902
16500.000000 122.676 -25.4320
16750.000000 121.900 -21.2272
17000.000000 121.263 -17.0312
17250.000000 120.745 -12.0455
17500.000000 120.428 -7.4468
17750.000000 120.215 -2.6044
18000.000000 120.065 1.6727
18250.000000 119.992 5.1987
18500.000000 119.972 8.1772
18750.000000 119.771 10.1757
19000.000000 119.481 11.0696
19250.000000 118.902 12.8235
19500.000000 118.273 15.0098
19750.000000 117.778 15.9521
