* Measurement data measured by REW V5.30 beta 4
* Source: Microphone (USB Sound Device        ), MICROPHONE (Master Volume), R, volume: 0.660. Timing signal peak level -16.0 dBFS, measurement signal peak level -12.4 dBFS
* Format: 256k Log Swept Sine, 1 sweep at -12.0 dBFS using an acoustic timing reference
* Dated: Dec 6, 2023 3:40:17 PM
* REW Settings:
*  C-weighting compensation: Off
*  Target level: 75.0 dB
* Note: Delay -0.0171 ms (-5.9 mm, -0.23 in) using estimated IR delay relative to Acoustic reference played from SPEAKER R with no timing offset
* Measurement: R EJ07M KL Blue Right Dec 6
* Smoothing: None
* Frequency Step: 1/48 octave
* Start Frequency: 1.000 Hz
*
* Freq(Hz) SPL(dB) Phase(degrees)
1.000000 126.906 -63.8744
1.015000 126.865 -64.5094
1.030000 126.823 -65.1251
1.044000 126.784 -65.6818
1.060000 126.739 -66.2959
1.075000 126.697 -66.8491
1.090000 126.656 -67.3799
1.106000 126.611 -67.9213
1.120000 126.570 -68.3789
1.138000 126.516 -68.9463
1.150000 126.478 -69.3115
1.172000 126.407 -69.9535
1.180000 126.381 -70.1780
1.206000 126.293 -70.8748
1.220000 126.245 -71.2289
1.241000 126.173 -71.7322
1.250000 126.142 -71.9375
1.265000 126.091 -72.2659
1.280000 126.040 -72.5768
1.315000 125.924 -73.2337
1.320000 125.908 -73.3196
1.340000 125.846 -73.6435
1.360000 125.786 -73.9352
1.380000 125.730 -74.1946
1.400000 125.678 -74.4213
1.430000 125.610 -74.6995
1.450000 125.571 -74.8432
1.475000 125.530 -74.9718
1.500000 125.492 -75.0134
1.525000 125.457 -74.9695
1.550000 125.425 -74.8502
1.575000 125.397 -74.6656
1.600000 125.373 -74.4261
1.625000 125.354 -74.1417
1.650000 125.342 -73.8225
1.675000 125.335 -73.4787
1.700000 125.336 -73.1205
1.725000 125.345 -72.7579
1.750000 125.362 -72.4013
1.775000 125.388 -72.0606
1.800000 125.425 -71.7461
1.825000 125.472 -71.4679
1.850000 125.530 -71.2122
1.875000 125.602 -70.9299
1.900000 125.686 -70.6256
1.925000 125.780 -70.3062
1.950000 125.884 -69.9784
1.975000 125.996 -69.6491
2.000000 126.115 -69.3251
2.030000 126.265 -68.9530
2.060000 126.422 -68.6104
2.090000 126.583 -68.3089
2.120000 126.747 -68.0605
2.140000 126.856 -67.9302
2.180000 127.071 -67.7701
2.200000 127.177 -67.7472
2.240000 127.395 -67.7967
2.270000 127.568 -67.9043
2.300000 127.746 -68.0670
2.330000 127.929 -68.2800
2.360000 128.114 -68.5385
2.400000 128.363 -68.9456
2.430000 128.548 -69.2917
2.470000 128.791 -69.7982
2.500000 128.968 -70.2058
2.540000 129.194 -70.7770
2.580000 129.406 -71.3762
2.620000 129.612 -72.0495
2.650000 129.764 -72.6033
2.690000 129.961 -73.3951
2.720000 130.106 -74.0211
2.760000 130.293 -74.8867
2.800000 130.473 -75.7746
2.850000 130.688 -76.8932
2.900000 130.890 -77.9951
2.950000 131.079 -79.0613
3.000000 131.254 -80.1516
3.040000 131.384 -81.0433
3.070000 131.477 -81.7175
3.110000 131.595 -82.6163
3.150000 131.706 -83.5065
3.200000 131.836 -84.5933
3.250000 131.959 -85.6348
3.300000 132.075 -86.6131
3.350000 132.181 -87.5478
3.400000 132.275 -88.4563
3.450000 132.360 -89.3311
3.500000 132.438 -90.1653
3.550000 132.511 -90.9515
3.600000 132.581 -91.6827
3.650000 132.652 -92.3517
3.700000 132.721 -92.9531
3.750000 132.784 -93.4908
3.820000 132.866 -94.1479
3.870000 132.922 -94.5571
3.950000 133.015 -95.1240
4.000000 133.079 -95.4328
4.060000 133.163 -95.7573
4.120000 133.251 -95.9957
4.180000 133.343 -96.1652
4.250000 133.455 -96.3092
4.310000 133.558 -96.4156
4.370000 133.667 -96.5330
4.440000 133.804 -96.6924
4.500000 133.932 -96.8062
4.550000 134.043 -96.8931
4.620000 134.205 -97.0218
4.680000 134.346 -97.1563
4.750000 134.510 -97.3644
4.820000 134.676 -97.6353
4.870000 134.798 -97.8550
4.940000 134.971 -98.1958
5.000000 135.119 -98.5163
5.080000 135.311 -98.9801
5.150000 135.470 -99.4179
5.220000 135.625 -99.9036
5.300000 135.797 -100.5057
5.380000 135.961 -101.1327
5.450000 136.098 -101.6811
5.520000 136.226 -102.2149
5.600000 136.362 -102.8368
5.700000 136.520 -103.6195
5.800000 136.667 -104.3704
5.900000 136.806 -105.0538
6.000000 136.932 -105.6857
6.080000 137.026 -106.1570
6.150000 137.107 -106.5423
6.220000 137.188 -106.9008
6.300000 137.280 -107.2703
6.400000 137.392 -107.6752
6.500000 137.503 -108.0410
6.600000 137.618 -108.3936
6.700000 137.737 -108.7212
6.800000 137.858 -109.0240
6.900000 137.981 -109.3308
7.000000 138.105 -109.6661
7.100000 138.232 -110.0163
7.200000 138.359 -110.3824
7.300000 138.483 -110.7720
7.400000 138.603 -111.1929
7.500000 138.720 -111.6430
7.620000 138.856 -112.2046
7.750000 138.993 -112.8220
7.880000 139.120 -113.4620
8.000000 139.229 -114.0505
8.120000 139.332 -114.6145
8.250000 139.433 -115.2089
8.380000 139.529 -115.7787
8.500000 139.615 -116.2726
8.620000 139.698 -116.7374
8.750000 139.785 -117.2208
8.850000 139.853 -117.5836
9.000000 139.955 -118.1039
9.120000 140.036 -118.5175
9.250000 140.125 -118.9760
9.380000 140.214 -119.4383
9.500000 140.295 -119.8754
9.620000 140.374 -120.3285
9.750000 140.458 -120.8333
9.880000 140.539 -121.3462
10.000000 140.610 -121.8269
10.150000 140.695 -122.4365
10.300000 140.776 -123.0402
10.440000 140.847 -123.5989
10.600000 140.925 -124.2284
10.750000 140.997 -124.8042
10.900000 141.065 -125.3693
11.060000 141.138 -125.9650
11.200000 141.201 -126.4789
11.380000 141.281 -127.1381
11.500000 141.333 -127.5784
11.720000 141.427 -128.3859
11.800000 141.461 -128.6803
12.060000 141.566 -129.6368
12.200000 141.620 -130.1462
12.410000 141.698 -130.9021
12.500000 141.731 -131.2202
12.650000 141.784 -131.7430
12.800000 141.836 -132.2575
13.150000 141.956 -133.4259
13.200000 141.973 -133.5906
13.400000 142.039 -134.2440
13.600000 142.104 -134.8919
13.800000 142.167 -135.5362
14.000000 142.227 -136.1724
14.300000 142.311 -137.1082
14.500000 142.364 -137.7127
14.750000 142.427 -138.4446
15.000000 142.488 -139.1505
15.250000 142.547 -139.8368
15.500000 142.604 -140.5114
15.750000 142.659 -141.1783
16.000000 142.710 -141.8404
16.250000 142.758 -142.4934
16.500000 142.802 -143.1348
16.750000 142.843 -143.7602
17.000000 142.882 -144.3707
17.250000 142.918 -144.9694
17.500000 142.954 -145.5610
17.750000 142.988 -146.1509
18.000000 143.020 -146.7396
18.250000 143.049 -147.3271
18.500000 143.076 -147.9089
18.750000 143.100 -148.4831
19.000000 143.123 -149.0477
19.250000 143.146 -149.6039
19.500000 143.167 -150.1541
19.750000 143.188 -150.7004
20.000000 143.208 -151.2446
20.299999 143.231 -151.8927
20.600000 143.252 -152.5325
20.900000 143.272 -153.1605
21.200001 143.291 -153.7751
21.400000 143.303 -154.1783
21.799999 143.327 -154.9717
22.000000 143.339 -155.3625
22.400000 143.360 -156.1313
22.700001 143.375 -156.6938
23.000000 143.389 -157.2422
23.299999 143.402 -157.7776
23.600000 143.414 -158.3024
24.000000 143.429 -158.9889
24.299999 143.439 -159.4942
24.700001 143.449 -160.1527
25.000000 143.455 -160.6338
25.400000 143.462 -161.2596
25.799999 143.467 -161.8731
26.200001 143.472 -162.4790
26.500000 143.473 -162.9287
26.900000 143.474 -163.5206
27.200001 143.474 -163.9585
27.600000 143.473 -164.5358
28.000000 143.470 -165.1072
28.500000 143.466 -165.8111
29.000000 143.460 -166.4971
29.500000 143.455 -167.1659
30.000000 143.449 -167.8245
30.400000 143.444 -168.3451
30.700001 143.440 -168.7294
31.100000 143.433 -169.2299
31.500000 143.426 -169.7161
32.000000 143.418 -170.3080
32.500000 143.408 -170.8868
33.000000 143.398 -171.4516
33.500000 143.387 -172.0016
34.000000 143.374 -172.5399
34.500000 143.361 -173.0701
35.000000 143.346 -173.5912
35.500000 143.331 -174.1018
36.000000 143.314 -174.6026
36.500000 143.297 -175.0953
37.000000 143.280 -175.5807
37.500000 143.262 -176.0590
38.200001 143.236 -176.7130
38.700001 143.217 -177.1646
39.500000 143.188 -177.8681
40.000000 143.171 -178.3066
40.599998 143.147 -178.8251
41.200001 143.123 -179.3172
41.799999 143.099 -179.7904
42.500000 143.072 179.6549
43.099998 143.046 179.1873
43.700001 143.019 178.7468
44.400002 142.990 178.2481
45.000000 142.965 177.8131
45.500000 142.942 177.4569
46.200001 142.909 176.9862
46.799999 142.884 176.5925
47.500000 142.853 176.1227
48.200001 142.819 175.6702
48.700001 142.795 175.3696
49.400002 142.766 174.9528
50.000000 142.740 174.5788
50.799999 142.700 174.0965
51.500000 142.666 173.7164
52.200001 142.637 173.3329
53.000000 142.600 172.8724
53.799999 142.559 172.4471
54.500000 142.526 172.1041
55.200001 142.494 171.7531
56.000000 142.455 171.3542
57.000000 142.406 170.8994
58.000000 142.360 170.4493
59.000000 142.311 170.0045
60.000000 142.263 169.5827
60.799999 142.225 169.2489
61.500000 142.191 168.9709
62.200001 142.159 168.7032
63.000000 142.122 168.3949
64.000000 142.075 168.0126
65.000000 142.025 167.6569
66.000000 141.978 167.3220
67.000000 141.931 166.9796
68.000000 141.883 166.6534
69.000000 141.837 166.3367
70.000000 141.790 166.0192
71.000000 141.743 165.7283
72.000000 141.699 165.4475
73.000000 141.655 165.1685
74.000000 141.609 164.9037
75.000000 141.564 164.6549
76.199997 141.511 164.3574
77.500000 141.451 164.0511
78.800003 141.393 163.7581
80.000000 141.341 163.4969
81.199997 141.288 163.2437
82.500000 141.233 162.9820
83.800003 141.177 162.7303
85.000000 141.126 162.5135
86.199997 141.075 162.3101
87.500000 141.021 162.0952
88.500000 140.979 161.9415
90.000000 140.918 161.7055
91.199997 140.868 161.5317
92.500000 140.817 161.3491
93.800003 140.765 161.1751
95.000000 140.719 161.0224
96.199997 140.674 160.8737
97.500000 140.624 160.7155
98.800003 140.575 160.5654
100.000000 140.529 160.4331
101.500000 140.472 160.2834
103.000000 140.418 160.1413
104.400002 140.368 160.0080
106.000000 140.311 159.8695
107.500000 140.257 159.7522
109.000000 140.206 159.6483
110.599998 140.151 159.5391
112.000000 140.103 159.4535
113.800003 140.043 159.3444
115.000000 140.002 159.2822
117.199997 139.930 159.1658
118.000000 139.905 159.1313
120.599998 139.825 158.9966
122.000000 139.782 158.9389
124.099998 139.719 158.8503
125.000000 139.691 158.8227
126.500000 139.648 158.7736
128.000000 139.603 158.7379
131.500000 139.506 158.6552
132.000000 139.492 158.6425
134.000000 139.437 158.6140
136.000000 139.382 158.5773
138.000000 139.327 158.5606
140.000000 139.273 158.5424
143.000000 139.197 158.5251
145.000000 139.147 158.5191
147.500000 139.084 158.5070
150.000000 139.024 158.5084
152.500000 138.964 158.5271
155.000000 138.907 158.5521
157.500000 138.851 158.5699
160.000000 138.795 158.5919
162.500000 138.740 158.6275
165.000000 138.687 158.6623
167.500000 138.635 158.6932
170.000000 138.584 158.7461
172.500000 138.534 158.8012
175.000000 138.484 158.8519
177.500000 138.434 158.9075
180.000000 138.388 158.9686
182.500000 138.340 159.0307
185.000000 138.296 159.1031
187.500000 138.253 159.1788
190.000000 138.208 159.2467
192.500000 138.166 159.3100
195.000000 138.125 159.3786
197.500000 138.083 159.4560
200.000000 138.043 159.5373
203.000000 137.996 159.6204
206.000000 137.951 159.7134
209.000000 137.906 159.8210
212.000000 137.861 159.9275
214.000000 137.832 159.9881
218.000000 137.776 160.1375
220.000000 137.746 160.2051
224.000000 137.692 160.3546
227.000000 137.651 160.4548
230.000000 137.611 160.5712
233.000000 137.571 160.6833
236.000000 137.535 160.7917
240.000000 137.486 160.9458
243.000000 137.450 161.0657
247.000000 137.401 161.2024
250.000000 137.367 161.3300
254.000000 137.324 161.4686
258.000000 137.278 161.6329
262.000000 137.237 161.7823
265.000000 137.203 161.9088
269.000000 137.162 162.0762
272.000000 137.133 162.1796
276.000000 137.091 162.3358
280.000000 137.052 162.4945
285.000000 137.004 162.7101
290.000000 136.957 162.9041
295.000000 136.910 163.1012
300.000000 136.864 163.2974
304.000000 136.833 163.4691
307.000000 136.804 163.5781
311.000000 136.773 163.7353
315.000000 136.739 163.9030
320.000000 136.698 164.0788
325.000000 136.659 164.2891
330.000000 136.619 164.4929
335.000000 136.580 164.6906
340.000000 136.543 164.8841
345.000000 136.507 165.0858
350.000000 136.469 165.2639
355.000000 136.436 165.4818
360.000000 136.398 165.6748
365.000000 136.365 165.8803
370.000000 136.331 166.0551
375.000000 136.299 166.2476
382.000000 136.252 166.5326
387.000000 136.218 166.7079
395.000000 136.167 167.0184
400.000000 136.135 167.2104
406.000000 136.095 167.4293
412.000000 136.057 167.6706
418.000000 136.022 167.8900
425.000000 135.975 168.1543
431.000000 135.938 168.3879
437.000000 135.902 168.6075
444.000000 135.858 168.8596
450.000000 135.821 169.0927
455.000000 135.793 169.2838
462.000000 135.752 169.5464
468.000000 135.715 169.7693
475.000000 135.676 170.0276
482.000000 135.636 170.2790
487.000000 135.606 170.4724
494.000000 135.568 170.7013
500.000000 135.534 170.9540
508.000000 135.488 171.2395
515.000000 135.452 171.4831
522.000000 135.412 171.7345
530.000000 135.366 172.0248
538.000000 135.324 172.2964
545.000000 135.288 172.5166
552.000000 135.248 172.7452
560.000000 135.207 173.0249
570.000000 135.151 173.2927
580.000000 135.093 173.5135
590.000000 135.016 173.6664
600.000000 134.915 173.8625
608.000000 134.781 174.0159
615.000000 134.620 174.8513
622.000000 134.577 176.2382
630.000000 134.635 177.2759
640.000000 134.670 177.9604
650.000000 134.657 178.7563
660.000000 134.679 179.6226
670.000000 134.703 179.9854
680.000000 134.672 -179.7992
690.000000 134.634 -179.4215
700.000000 134.587 -178.9295
710.000000 134.536 -178.3551
720.000000 134.485 -177.9553
730.000000 134.458 -177.5113
740.000000 134.434 -176.9751
750.000000 134.414 -176.4383
762.000000 134.385 -175.7526
775.000000 134.358 -174.9977
788.000000 134.334 -174.2329
800.000000 134.320 -173.5566
812.000000 134.308 -172.7946
825.000000 134.298 -172.0217
838.000000 134.301 -171.2475
850.000000 134.304 -170.5061
862.000000 134.315 -169.7873
875.000000 134.334 -169.0224
885.000000 134.347 -168.3900
900.000000 134.376 -167.5098
912.000000 134.411 -166.8669
925.000000 134.447 -166.1048
938.000000 134.486 -165.3954
950.000000 134.529 -164.7732
962.000000 134.571 -164.1487
975.000000 134.621 -163.5063
988.000000 134.676 -162.8907
1000.000000 134.723 -162.3492
1015.000000 134.793 -161.6834
1030.000000 134.870 -161.0820
1044.000000 134.937 -160.5447
1060.000000 135.017 -159.9757
1075.000000 135.092 -159.4852
1090.000000 135.168 -159.0390
1106.000000 135.251 -158.5796
1120.000000 135.322 -158.2159
1138.000000 135.413 -157.7872
1150.000000 135.469 -157.5424
1172.000000 135.580 -157.0960
1180.000000 135.615 -156.9563
1206.000000 135.736 -156.4958
1220.000000 135.797 -156.2768
1241.000000 135.887 -155.9600
1250.000000 135.925 -155.8471
1265.000000 135.985 -155.6230
1280.000000 136.046 -155.4440
1315.000000 136.176 -154.9820
1320.000000 136.195 -154.9493
1340.000000 136.270 -154.6985
1360.000000 136.342 -154.4685
1380.000000 136.410 -154.2403
1400.000000 136.477 -154.0167
1430.000000 136.581 -153.6727
1450.000000 136.641 -153.4510
1475.000000 136.730 -153.1608
1500.000000 136.814 -152.9312
1525.000000 136.900 -152.6500
1550.000000 136.987 -152.3962
1575.000000 137.076 -152.1331
1600.000000 137.162 -151.8973
1625.000000 137.253 -151.6659
1650.000000 137.345 -151.4558
1675.000000 137.436 -151.2488
1700.000000 137.530 -151.0439
1725.000000 137.622 -150.8640
1750.000000 137.719 -150.6984
1775.000000 137.815 -150.5632
1800.000000 137.914 -150.4295
1825.000000 138.016 -150.3252
1850.000000 138.118 -150.2418
1875.000000 138.222 -150.1963
1900.000000 138.328 -150.1976
1925.000000 138.436 -150.2105
1950.000000 138.543 -150.2147
1975.000000 138.649 -150.2896
2000.000000 138.759 -150.3722
2030.000000 138.885 -150.5641
2060.000000 139.014 -150.7822
2090.000000 139.140 -151.0583
2120.000000 139.262 -151.3748
2140.000000 139.344 -151.6178
2180.000000 139.503 -152.1700
2200.000000 139.580 -152.4882
2240.000000 139.728 -153.1920
2270.000000 139.837 -153.7926
2300.000000 139.936 -154.4488
2330.000000 140.034 -155.1203
2360.000000 140.123 -155.8644
2400.000000 140.231 -156.8994
2430.000000 140.304 -157.7175
2470.000000 140.389 -158.8680
2500.000000 140.442 -159.7351
2540.000000 140.502 -160.8974
2580.000000 140.544 -162.0784
2620.000000 140.576 -163.2420
2650.000000 140.594 -164.0993
2690.000000 140.606 -165.2467
2720.000000 140.610 -166.0999
2760.000000 140.607 -167.2232
2800.000000 140.595 -168.3459
2850.000000 140.565 -169.7253
2900.000000 140.521 -171.0413
2950.000000 140.460 -172.3184
3000.000000 140.383 -173.5002
3040.000000 140.315 -174.3652
3070.000000 140.263 -174.9634
3110.000000 140.187 -175.7164
3150.000000 140.108 -176.3911
3200.000000 140.006 -177.1381
3250.000000 139.904 -177.7579
3300.000000 139.802 -178.2832
3350.000000 139.699 -178.7159
3400.000000 139.602 -179.0582
3450.000000 139.505 -179.2957
3500.000000 139.412 -179.4649
3550.000000 139.322 -179.5547
3600.000000 139.239 -179.5355
3650.000000 139.169 -179.4624
3700.000000 139.105 -179.2920
3750.000000 139.048 -179.0639
3820.000000 138.996 -178.6342
3870.000000 138.974 -178.2590
3950.000000 138.978 -177.6114
4000.000000 139.005 -177.1684
4060.000000 139.066 -176.6244
4120.000000 139.165 -176.2074
4180.000000 139.285 -175.8949
4250.000000 139.461 -175.7636
4310.000000 139.637 -175.8847
4370.000000 139.829 -176.2420
4440.000000 140.066 -176.9575
4500.000000 140.277 -177.9416
4550.000000 140.457 -178.9964
4620.000000 140.693 179.0941
4680.000000 140.880 177.0588
4750.000000 141.055 174.2257
4820.000000 141.177 170.8920
4870.000000 141.211 168.2753
4940.000000 141.185 164.3334
5000.000000 141.081 160.8953
5080.000000 140.807 156.4083
5150.000000 140.457 152.9206
5220.000000 140.025 150.0722
5300.000000 139.487 147.6310
5380.000000 138.932 145.9658
5450.000000 138.437 145.0376
5520.000000 137.955 144.5821
5600.000000 137.414 144.5029
5700.000000 136.770 144.9653
5800.000000 136.167 146.0621
5900.000000 135.621 147.6818
6000.000000 135.145 149.5498
6080.000000 134.801 151.3767
6150.000000 134.530 152.9754
6220.000000 134.292 154.6960
6300.000000 134.062 156.7593
6400.000000 133.826 159.4553
6500.000000 133.646 162.1912
6600.000000 133.537 164.9113
6700.000000 133.493 167.6520
6800.000000 133.509 170.2629
6900.000000 133.579 172.8151
7000.000000 133.734 175.2445
7100.000000 133.954 177.3202
7200.000000 134.232 179.0901
7300.000000 134.577 -179.5824
7400.000000 134.979 -178.6499
7500.000000 135.434 -178.5108
7620.000000 136.027 -179.3686
7750.000000 136.672 178.0509
7880.000000 137.224 173.5672
8000.000000 137.560 167.7424
8120.000000 137.570 160.9897
8250.000000 137.210 153.8007
8380.000000 136.517 147.8929
8500.000000 135.707 144.1846
8620.000000 134.825 142.2119
8750.000000 133.899 141.6382
8850.000000 133.216 142.0685
9000.000000 132.308 143.8578
9120.000000 131.696 146.1101
9250.000000 131.110 148.9855
9380.000000 130.638 152.3384
9500.000000 130.308 155.6870
9620.000000 130.070 159.2620
9750.000000 129.910 162.9853
9880.000000 129.833 166.8574
10000.000000 129.852 170.3745
10150.000000 129.994 174.6743
10300.000000 130.279 178.8421
10440.000000 130.678 -177.5279
10600.000000 131.338 -174.1835
10750.000000 132.096 -172.2150
10900.000000 133.017 -171.7822
11060.000000 134.047 -174.1254
11200.000000 134.813 -179.1451
11380.000000 135.173 171.2690
11500.000000 134.868 164.9166
11720.000000 133.656 158.5703
11800.000000 133.209 158.0560
12060.000000 132.130 159.0431
12200.000000 131.748 159.7911
12410.000000 131.195 160.2222
12500.000000 130.912 160.3151
12650.000000 130.365 160.8508
12800.000000 129.745 162.1479
13150.000000 128.388 168.5616
13200.000000 128.199 169.7114
13400.000000 127.588 175.0551
13600.000000 127.113 -178.4641
13800.000000 126.864 -171.6154
14000.000000 126.841 -164.5880
14300.000000 127.096 -154.4248
14500.000000 127.536 -148.1449
14750.000000 128.459 -141.7123
15000.000000 129.693 -137.9279
15250.000000 131.100 -138.5045
15500.000000 132.260 -144.4348
15750.000000 132.780 -153.4971
16000.000000 132.634 -163.7805
16250.000000 131.786 -174.3786
16500.000000 129.989 177.7028
16750.000000 127.724 175.9532
17000.000000 125.635 -179.8617
17250.000000 123.928 -172.5176
17500.000000 122.601 -163.2540
17750.000000 121.639 -153.0855
18000.000000 120.906 -143.1976
18250.000000 120.441 -133.6136
18500.000000 120.112 -123.4312
18750.000000 120.031 -115.5494
19000.000000 119.818 -108.3289
