* Measurement data measured by REW V5.20.13
* Source: C:\Users\marcu\OneDrive\Desktop\audio_db\Meaoes Eagle Foam R.txt
* Format: Comma/Tab/Space delimited data
* Dated: Aug 1, 2023 5:25:49 PM
* REW Settings:
*  C-weighting compensation: Off
*  Target level: 75.0 dB
* Note: ; Measurement imported from C:\Users\marcu\OneDrive\Desktop\audio_db\Meaoes Eagle Foam R.txt Format: Comma/Tab/Space delimited data 54613 values loaded, 0 Hz to 20,000 Hz 
* Measurement: Meaoes Eagle Foam R
* Smoothing: None
* Frequency Step: 1/48 octave
* Start Frequency: 1.000 Hz
*
* Freq(Hz)	SPL(dB)	Phase(degrees)
1.000000	68.421	-59.3196
1.015000	68.251	-60.1750
1.030000	68.074	-61.0255
1.044000	67.903	-61.8143
1.060000	67.701	-62.7098
1.075000	67.503	-63.5429
1.090000	67.299	-64.3694
1.106000	67.073	-65.2642
1.120000	66.881	-66.1698
1.138000	66.642	-67.5089
1.150000	66.485	-68.4943
1.172000	66.203	-70.4527
1.180000	66.101	-71.2030
1.206000	65.765	-73.7300
1.220000	65.581	-75.1186
1.241000	65.295	-77.1912
1.250000	65.167	-78.0632
1.265000	64.948	-79.4779
1.280000	64.719	-80.8258
1.315000	64.132	-83.5923
1.320000	64.041	-83.9327
1.340000	63.659	-85.1258
1.360000	63.243	-86.0115
1.380000	62.788	-86.5396
1.400000	62.291	-86.6598
1.430000	61.456	-85.9650
1.450000	60.834	-84.8450
1.475000	59.962	-82.6002
1.500000	58.871	-79.2505
1.525000	57.571	-74.8927
1.550000	56.107	-69.6754
1.575000	54.524	-63.7474
1.600000	52.865	-57.2574
1.625000	51.174	-50.3542
1.650000	49.496	-43.1865
1.675000	47.876	-35.9029
1.700000	46.357	-28.6522
1.725000	44.983	-21.5832
1.750000	43.800	-14.8446
1.775000	42.850	-8.5851
1.800000	42.179	-2.9534
1.825000	41.831	1.9018
1.850000	41.845	6.0566
1.875000	42.209	9.9724
1.900000	42.877	13.6665
1.925000	43.804	17.1345
1.950000	44.943	20.3723
1.975000	46.250	23.3755
2.000000	47.679	26.1398
2.030000	49.489	29.1358
2.060000	51.330	31.7743
2.090000	53.122	34.0480
2.120000	54.786	35.9494
2.140000	55.785	37.0066
2.180000	57.414	38.6061
2.200000	57.998	39.1426
2.240000	58.888	39.3956
2.270000	59.400	38.8698
2.300000	59.796	37.8295
2.330000	60.093	36.3634
2.360000	60.307	34.5603
2.400000	60.490	31.7853
2.430000	60.574	29.5410
2.470000	60.642	26.5001
2.500000	60.683	24.2981
2.540000	60.755	21.6358
2.580000	60.870	19.4185
2.620000	60.956	17.2632
2.650000	60.991	15.6227
2.690000	60.999	13.4144
2.720000	60.978	11.7499
2.760000	60.919	9.5304
2.800000	60.825	7.3234
2.850000	60.666	4.6031
2.900000	60.466	1.9503
2.950000	60.232	-0.6289
3.000000	59.958	-3.2771
3.040000	59.709	-5.4261
3.070000	59.503	-7.0291
3.110000	59.201	-9.1221
3.150000	58.867	-11.1272
3.200000	58.402	-13.4483
3.250000	57.881	-15.4895
3.300000	57.300	-17.1743
3.350000	56.615	-18.8716
3.400000	55.825	-20.6950
3.450000	54.966	-22.3763
3.500000	54.077	-23.6474
3.550000	53.196	-24.2402
3.600000	52.361	-23.8865
3.650000	51.610	-22.3182
3.700000	50.922	-19.0809
3.750000	50.198	-13.9236
3.820000	49.205	-4.6241
3.870000	48.575	2.6518
3.950000	47.837	13.6540
4.000000	47.619	19.1536
4.060000	47.694	23.6292
4.120000	48.179	26.9027
4.180000	48.956	29.2360
4.250000	50.050	30.8332
4.310000	50.994	31.2918
4.370000	51.800	30.9600
4.440000	52.471	29.4380
4.500000	52.957	26.8291
4.550000	53.321	23.9454
4.620000	53.775	19.2070
4.680000	54.124	14.8499
4.750000	54.498	9.8821
4.820000	54.832	5.0617
4.870000	55.036	1.3911
4.940000	55.280	-3.9394
5.000000	55.461	-8.5627
5.080000	55.678	-14.5975
5.150000	55.857	-19.5903
5.220000	56.015	-24.5205
5.300000	56.167	-30.0720
5.380000	56.293	-35.3756
5.450000	56.384	-39.6820
5.520000	56.459	-43.5821
5.600000	56.514	-47.7017
5.700000	56.547	-52.3081
5.800000	56.565	-56.1485
5.900000	56.587	-59.0517
6.000000	56.576	-60.9855
6.080000	56.568	-61.9508
6.150000	56.587	-62.4541
6.220000	56.651	-62.7072
6.300000	56.781	-62.5468
6.400000	57.000	-61.6041
6.500000	57.285	-60.3532
6.600000	57.639	-59.3464
6.700000	58.090	-58.5341
6.800000	58.617	-57.7731
6.900000	59.161	-57.2630
7.000000	59.674	-57.1933
7.100000	60.191	-57.5641
7.200000	60.698	-58.2278
7.300000	61.164	-59.0354
7.400000	61.571	-59.9457
7.500000	61.935	-61.0598
7.620000	62.318	-62.4549
7.750000	62.666	-63.7885
7.880000	62.936	-65.0445
8.000000	63.140	-66.0462
8.120000	63.322	-66.7753
8.250000	63.475	-67.2914
8.380000	63.615	-67.5813
8.500000	63.754	-67.6559
8.620000	63.893	-67.5098
8.750000	64.053	-67.2684
8.850000	64.191	-67.1091
9.000000	64.418	-66.8149
9.120000	64.607	-66.6451
9.250000	64.813	-66.6250
9.380000	65.024	-66.7265
9.500000	65.210	-66.9204
9.620000	65.379	-67.2236
9.750000	65.550	-67.6702
9.880000	65.704	-68.1649
10.000000	65.827	-68.6459
10.150000	65.960	-69.2932
10.300000	66.078	-69.9168
10.440000	66.173	-70.4715
10.600000	66.272	-71.0890
10.750000	66.365	-71.6444
10.900000	66.454	-72.1885
11.060000	66.552	-72.8038
11.200000	66.640	-73.3656
11.380000	66.753	-74.1441
11.500000	66.828	-74.7090
11.720000	66.964	-75.8104
11.800000	67.012	-76.2284
12.060000	67.163	-77.6413
12.200000	67.244	-78.4064
12.410000	67.366	-79.5612
12.500000	67.421	-80.0531
12.650000	67.514	-80.8683
12.800000	67.611	-81.6856
13.150000	67.852	-83.6176
13.200000	67.888	-83.8965
13.400000	68.033	-85.0261
13.600000	68.178	-86.1459
13.800000	68.322	-87.2497
14.000000	68.464	-88.2957
14.300000	68.677	-89.7394
14.500000	68.823	-90.5998
14.750000	69.013	-91.5985
15.000000	69.212	-92.5345
15.250000	69.416	-93.4685
15.500000	69.614	-94.4123
15.750000	69.802	-95.3618
16.000000	69.971	-96.2831
16.250000	70.122	-97.1241
16.500000	70.259	-97.8667
16.750000	70.388	-98.4931
17.000000	70.517	-99.0466
17.250000	70.646	-99.5636
17.500000	70.777	-100.0943
17.750000	70.903	-100.6765
18.000000	71.020	-101.3065
18.250000	71.124	-101.9776
18.500000	71.214	-102.6513
18.750000	71.294	-103.3131
19.000000	71.367	-103.9502
19.250000	71.440	-104.5750
19.500000	71.513	-105.2116
19.750000	71.587	-105.8781
20.000000	71.662	-106.5957
20.299999	71.745	-107.5097
20.600000	71.820	-108.4533
20.900000	71.888	-109.3840
21.200001	71.954	-110.2637
21.400000	72.001	-110.8183
21.799999	72.107	-111.8810
22.000000	72.166	-112.4084
22.400000	72.295	-113.4953
22.700001	72.391	-114.3407
23.000000	72.484	-115.1838
23.299999	72.571	-115.9853
23.600000	72.657	-116.7258
24.000000	72.775	-117.6296
24.299999	72.868	-118.2923
24.700001	72.991	-119.2255
25.000000	73.072	-119.9720
25.400000	73.152	-120.9620
25.799999	73.198	-121.7982
26.200001	73.234	-122.3764
26.500000	73.274	-122.6737
26.900000	73.355	-123.0336
27.200001	73.434	-123.3991
27.600000	73.543	-124.1034
28.000000	73.629	-125.0046
28.500000	73.696	-126.1721
29.000000	73.741	-127.1862
29.500000	73.796	-128.0935
30.000000	73.865	-129.0430
30.400000	73.918	-129.8471
30.700001	73.952	-130.4425
31.100000	73.998	-131.1864
31.500000	74.047	-131.8754
32.000000	74.117	-132.7177
32.500000	74.189	-133.5881
33.000000	74.252	-134.4612
33.500000	74.303	-135.2780
34.000000	74.348	-136.0083
34.500000	74.393	-136.6650
35.000000	74.444	-137.2902
35.500000	74.500	-137.9444
36.000000	74.550	-138.6639
36.500000	74.589	-139.4201
37.000000	74.617	-140.1380
37.500000	74.643	-140.7795
38.200001	74.695	-141.6393
38.700001	74.741	-142.3158
39.500000	74.804	-143.4972
40.000000	74.832	-144.2231
40.599998	74.862	-145.0407
41.200001	74.890	-145.7982
41.799999	74.918	-146.4990
42.500000	74.955	-147.2830
43.099998	74.988	-147.9800
43.700001	75.014	-148.6890
44.400002	75.035	-149.4536
45.000000	75.056	-150.0543
45.500000	75.079	-150.5735
46.200001	75.108	-151.3559
46.799999	75.123	-152.0176
47.500000	75.141	-152.7405
48.200001	75.161	-153.4696
48.700001	75.173	-153.9978
49.400002	75.182	-154.6960
50.000000	75.193	-155.2553
50.799999	75.212	-156.0073
51.500000	75.224	-156.6726
52.200001	75.235	-157.3183
53.000000	75.246	-158.0399
53.799999	75.256	-158.7411
54.500000	75.262	-159.3230
55.200001	75.271	-159.8784
56.000000	75.283	-160.5024
57.000000	75.293	-161.2903
58.000000	75.300	-162.0278
59.000000	75.317	-162.7965
60.000000	75.315	-163.6900
60.799999	75.297	-164.3056
61.500000	75.291	-164.7726
62.200001	75.292	-165.2810
63.000000	75.286	-165.8872
64.000000	75.276	-166.5684
65.000000	75.272	-167.2468
66.000000	75.261	-167.9200
67.000000	75.250	-168.5495
68.000000	75.243	-169.1952
69.000000	75.229	-169.8491
70.000000	75.213	-170.4371
71.000000	75.205	-171.0248
72.000000	75.191	-171.6328
73.000000	75.171	-172.1619
74.000000	75.160	-172.6510
75.000000	75.148	-173.2078
76.199997	75.123	-173.8318
77.500000	75.105	-174.5355
78.800003	75.073	-175.2196
80.000000	75.056	-175.7927
81.199997	75.038	-176.3934
82.500000	75.015	-177.0393
83.800003	74.979	-177.6213
85.000000	74.951	-178.1187
86.199997	74.921	-178.6411
87.500000	74.887	-179.2014
88.500000	74.860	-179.6143
90.000000	74.828	179.7657
91.199997	74.798	179.2470
92.500000	74.763	178.7496
93.800003	74.731	178.2746
95.000000	74.701	177.8600
96.199997	74.674	177.4395
97.500000	74.640	176.9879
98.800003	74.610	176.5183
100.000000	74.574	176.0956
101.500000	74.534	175.6108
103.000000	74.495	175.1413
104.400002	74.454	174.6977
106.000000	74.407	174.2414
107.500000	74.367	173.8413
109.000000	74.332	173.3625
110.599998	74.283	172.9132
112.000000	74.251	172.5605
113.800003	74.207	172.0479
115.000000	74.167	171.7479
117.199997	74.102	171.2719
118.000000	74.079	171.0823
120.599998	73.999	170.4126
122.000000	73.950	170.0979
124.099998	73.893	169.6562
125.000000	73.869	169.4554
126.500000	73.826	169.1310
128.000000	73.783	168.8503
131.500000	73.685	168.1743
132.000000	73.670	168.0804
134.000000	73.609	167.7221
136.000000	73.550	167.3883
138.000000	73.497	167.0440
140.000000	73.437	166.7094
143.000000	73.351	166.2594
145.000000	73.294	165.9747
147.500000	73.224	165.6169
150.000000	73.150	165.2960
152.500000	73.080	164.9885
155.000000	73.008	164.6808
157.500000	72.932	164.4001
160.000000	72.864	164.1279
162.500000	72.797	163.8581
165.000000	72.731	163.6198
167.500000	72.662	163.3865
170.000000	72.594	163.1704
172.500000	72.527	162.9492
175.000000	72.458	162.7726
177.500000	72.390	162.6189
180.000000	72.325	162.4414
182.500000	72.261	162.2358
185.000000	72.196	162.0684
187.500000	72.131	161.9368
190.000000	72.066	161.8164
192.500000	72.002	161.6981
195.000000	71.942	161.5843
197.500000	71.882	161.4713
200.000000	71.819	161.3710
203.000000	71.744	161.2737
206.000000	71.672	161.1652
209.000000	71.601	161.0874
212.000000	71.532	161.0086
214.000000	71.484	160.9465
218.000000	71.387	160.8687
220.000000	71.342	160.8456
224.000000	71.252	160.8022
227.000000	71.183	160.7673
230.000000	71.116	160.7449
233.000000	71.053	160.7099
236.000000	70.990	160.6828
240.000000	70.903	160.7097
243.000000	70.841	160.7380
247.000000	70.758	160.7444
250.000000	70.696	160.7537
254.000000	70.616	160.7901
258.000000	70.534	160.8581
262.000000	70.456	160.9333
265.000000	70.398	161.0008
269.000000	70.321	161.0769
272.000000	70.264	161.1213
276.000000	70.191	161.2114
280.000000	70.120	161.3238
285.000000	70.032	161.4594
290.000000	69.943	161.6152
295.000000	69.861	161.7958
300.000000	69.774	161.9556
304.000000	69.707	162.0863
307.000000	69.658	162.2097
311.000000	69.592	162.3771
315.000000	69.532	162.5486
320.000000	69.456	162.7732
325.000000	69.379	162.9795
330.000000	69.304	163.2098
335.000000	69.228	163.4327
340.000000	69.161	163.6551
345.000000	69.093	163.9206
350.000000	69.020	164.2032
355.000000	68.953	164.4478
360.000000	68.888	164.7029
365.000000	68.826	164.9653
370.000000	68.763	165.2379
375.000000	68.701	165.5304
382.000000	68.617	165.9212
387.000000	68.561	166.1896
395.000000	68.469	166.6686
400.000000	68.412	166.9636
406.000000	68.349	167.3255
412.000000	68.282	167.6707
418.000000	68.216	168.0424
425.000000	68.140	168.5076
431.000000	68.079	168.8755
437.000000	68.019	169.2405
444.000000	67.950	169.6954
450.000000	67.896	170.0878
455.000000	67.851	170.4185
462.000000	67.787	170.8692
468.000000	67.733	171.2728
475.000000	67.672	171.7723
482.000000	67.612	172.2866
487.000000	67.572	172.6465
494.000000	67.515	173.1120
500.000000	67.468	173.5487
508.000000	67.407	174.1360
515.000000	67.357	174.6472
522.000000	67.309	175.1633
530.000000	67.254	175.7474
538.000000	67.206	176.3376
545.000000	67.163	176.8543
552.000000	67.118	177.3881
560.000000	67.073	178.0109
570.000000	67.015	178.7973
580.000000	66.961	179.5644
590.000000	66.912	-179.6532
600.000000	66.861	-178.8760
608.000000	66.827	-178.2593
615.000000	66.796	-177.7094
622.000000	66.767	-177.1148
630.000000	66.734	-176.4547
640.000000	66.699	-175.6721
650.000000	66.664	-174.8751
660.000000	66.636	-174.0632
670.000000	66.608	-173.2107
680.000000	66.581	-172.3894
690.000000	66.560	-171.5542
700.000000	66.542	-170.7227
710.000000	66.530	-169.9033
720.000000	66.512	-169.0625
730.000000	66.503	-168.2124
740.000000	66.503	-167.3773
750.000000	66.497	-166.5718
762.000000	66.489	-165.5817
775.000000	66.492	-164.4809
788.000000	66.501	-163.3754
800.000000	66.516	-162.3554
812.000000	66.531	-161.3561
825.000000	66.552	-160.2454
838.000000	66.580	-159.1638
850.000000	66.612	-158.1781
862.000000	66.650	-157.1778
875.000000	66.696	-156.1075
885.000000	66.734	-155.2997
900.000000	66.800	-154.0971
912.000000	66.855	-153.1528
925.000000	66.925	-152.1394
938.000000	66.998	-151.1770
950.000000	67.071	-150.2860
962.000000	67.150	-149.4271
975.000000	67.237	-148.5655
988.000000	67.326	-147.7018
1000.000000	67.412	-146.9791
1015.000000	67.522	-146.0584
1030.000000	67.633	-145.1978
1044.000000	67.740	-144.4494
1060.000000	67.867	-143.6305
1075.000000	67.982	-142.9240
1090.000000	68.106	-142.2627
1106.000000	68.228	-141.5973
1120.000000	68.337	-141.0216
1138.000000	68.477	-140.3851
1150.000000	68.567	-139.9728
1172.000000	68.732	-139.2710
1180.000000	68.790	-139.0274
1206.000000	68.973	-138.2897
1220.000000	69.070	-137.8984
1241.000000	69.211	-137.3573
1250.000000	69.272	-137.1356
1265.000000	69.369	-136.7582
1280.000000	69.465	-136.4033
1315.000000	69.688	-135.5918
1320.000000	69.718	-135.4766
1340.000000	69.839	-135.0100
1360.000000	69.960	-134.5587
1380.000000	70.085	-134.1154
1400.000000	70.213	-133.6848
1430.000000	70.406	-133.0132
1450.000000	70.536	-132.6051
1475.000000	70.703	-132.1344
1500.000000	70.878	-131.7259
1525.000000	71.059	-131.3759
1550.000000	71.241	-131.1015
1575.000000	71.425	-130.9678
1600.000000	71.600	-130.9496
1625.000000	71.765	-131.0136
1650.000000	71.910	-131.1927
1675.000000	72.039	-131.4055
1700.000000	72.149	-131.6157
1725.000000	72.243	-131.7995
1750.000000	72.325	-131.9220
1775.000000	72.395	-131.9827
1800.000000	72.460	-131.9817
1825.000000	72.520	-131.9094
1850.000000	72.579	-131.7899
1875.000000	72.640	-131.6152
1900.000000	72.702	-131.4053
1925.000000	72.768	-131.1457
1950.000000	72.834	-130.8615
1975.000000	72.902	-130.5593
2000.000000	72.971	-130.2244
2030.000000	73.059	-129.7867
2060.000000	73.152	-129.3260
2090.000000	73.247	-128.8500
2120.000000	73.349	-128.3168
2140.000000	73.420	-127.9542
2180.000000	73.571	-127.2113
2200.000000	73.651	-126.8195
2240.000000	73.822	-126.0108
2270.000000	73.962	-125.3740
2300.000000	74.114	-124.7333
2330.000000	74.276	-124.1105
2360.000000	74.452	-123.5126
2400.000000	74.703	-122.7568
2430.000000	74.907	-122.2419
2470.000000	75.195	-121.6649
2500.000000	75.423	-121.3255
2540.000000	75.741	-121.0209
2580.000000	76.064	-120.9053
2620.000000	76.392	-120.9850
2650.000000	76.638	-121.1742
2690.000000	76.958	-121.5894
2720.000000	77.192	-122.0192
2760.000000	77.492	-122.7361
2800.000000	77.776	-123.5974
2850.000000	78.105	-124.8116
2900.000000	78.403	-126.1422
2950.000000	78.676	-127.5652
3000.000000	78.923	-129.0537
3040.000000	79.100	-130.2842
3070.000000	79.206	-131.2068
3110.000000	79.353	-132.0677
3150.000000	79.554	-133.0034
3200.000000	79.796	-134.3124
3250.000000	79.991	-135.7675
3300.000000	80.186	-137.3648
3350.000000	80.369	-139.0372
3400.000000	80.541	-140.8176
3450.000000	80.703	-142.7257
3500.000000	80.847	-144.7725
3550.000000	80.968	-146.9458
3600.000000	81.060	-149.2558
3650.000000	81.117	-151.6730
3700.000000	81.133	-154.1484
3750.000000	81.104	-156.6369
3820.000000	80.981	-160.0070
3870.000000	80.829	-162.1946
3950.000000	80.490	-165.0514
4000.000000	80.232	-166.2980
4060.000000	79.900	-167.1345
4120.000000	79.567	-167.1716
4180.000000	79.268	-166.4158
4250.000000	79.014	-164.6438
4310.000000	78.917	-162.5713
4370.000000	78.954	-160.2822
4440.000000	79.167	-157.7500
4500.000000	79.478	-156.0654
4550.000000	79.809	-155.1998
4620.000000	80.327	-155.0206
4680.000000	80.771	-155.8523
4750.000000	81.232	-157.8537
4820.000000	81.590	-160.6929
4870.000000	81.770	-163.0577
4940.000000	81.914	-166.5665
5000.000000	81.944	-169.5433
5080.000000	81.873	-173.2334
5150.000000	81.732	-176.0785
5220.000000	81.539	-178.4890
5300.000000	81.286	179.2840
5380.000000	81.026	177.6116
5450.000000	80.803	176.5584
5520.000000	80.594	175.8298
5600.000000	80.382	175.2926
5700.000000	80.164	174.9470
5800.000000	80.008	174.8322
5900.000000	79.920	174.7643
6000.000000	79.894	174.6266
6080.000000	79.919	174.3586
6150.000000	79.971	173.9150
6220.000000	80.047	173.2288
6300.000000	80.156	172.0473
6400.000000	80.315	169.7878
6500.000000	80.461	166.4350
6600.000000	80.536	161.8009
6700.000000	80.459	155.8083
6800.000000	80.131	148.7212
6900.000000	79.469	141.1947
7000.000000	78.436	134.1330
7100.000000	77.051	128.4073
7200.000000	75.360	124.5302
7300.000000	73.397	122.7512
7400.000000	71.146	123.5646
7500.000000	68.568	127.9905
7620.000000	65.041	141.9693
7750.000000	61.849	175.4214
7880.000000	63.064	-144.7468
8000.000000	66.279	-123.9260
8120.000000	69.182	-115.5105
8250.000000	71.730	-113.1300
8380.000000	73.751	-114.5099
8500.000000	75.213	-117.7892
8620.000000	76.325	-122.1720
8750.000000	77.183	-127.4611
8850.000000	77.633	-131.5163
9000.000000	78.055	-137.0739
9120.000000	78.238	-140.8143
9250.000000	78.348	-144.1015
9380.000000	78.423	-146.6625
9500.000000	78.494	-148.5094
9620.000000	78.589	-150.0150
9750.000000	78.734	-151.4529
9880.000000	78.934	-152.8719
10000.000000	79.169	-154.3309
10150.000000	79.515	-156.6048
10300.000000	79.896	-159.6335
10440.000000	80.252	-163.3348
10600.000000	80.597	-168.6986
10750.000000	80.800	-174.7269
10900.000000	80.838	178.6154
11060.000000	80.685	171.3354
11200.000000	80.403	165.2047
11380.000000	79.893	157.9154
11500.000000	79.496	153.4128
11720.000000	78.680	145.6378
11800.000000	78.350	142.9498
12060.000000	77.209	134.7473
12200.000000	76.549	130.1285
12410.000000	75.354	122.9080
12500.000000	74.743	119.9554
12650.000000	73.594	115.5304
12800.000000	72.306	111.9874
13150.000000	69.010	107.8781
13200.000000	68.530	107.7472
13400.000000	66.628	108.1628
13600.000000	64.790	109.7953
13800.000000	63.028	112.4054
14000.000000	61.352	115.7678
14300.000000	59.009	122.1299
14500.000000	57.593	126.9462
14750.000000	55.983	133.2284
15000.000000	54.528	139.7846
15250.000000	53.219	146.3331
15500.000000	52.058	153.0278
15750.000000	51.048	159.7277
16000.000000	50.159	166.3279
16250.000000	49.357	172.7299
16500.000000	48.633	178.8678
16750.000000	47.988	-174.9220
17000.000000	47.316	-169.0684
17250.000000	46.377	-163.5911
17500.000000	44.757	-156.8288
17750.000000	42.260	-130.8467
18000.000000	47.336	-87.6369
18250.000000	51.073	-100.0718
18500.000000	51.383	-113.4880
18750.000000	50.770	-116.1636
19000.000000	50.197	-110.8033
19250.000000	51.472	-104.4433
19500.000000	52.434	-113.3723
19750.000000	51.624	-121.6781
