* Measurement data measured by REW V5.20.13
* Source: EXCL: Microphone (USB Sound Device        ), MICROPHONE (Master Volume), L, volume: 0.130
* Format: 256k Log Swept Sine, 1 sweep at -6.0 dBFS with no timing reference
* Dated: Oct 26, 2023 10:44:09 PM
* REW Settings:
*  C-weighting compensation: Off
*  Target level: 75.0 dB
* Note: ; 
* Measurement: OG Dark Magician Foam L
* Smoothing: None
* Frequency Step: 1/48 octave
* Start Frequency: 1.000 Hz
*
* Freq(Hz)	SPL(dB)	Phase(degrees)
1.000000	54.915	169.5707
1.015000	54.880	168.7964
1.030000	54.841	167.9996
1.044000	54.802	167.2354
1.060000	54.752	166.3372
1.075000	54.702	165.4706
1.090000	54.647	164.5798
1.106000	54.583	163.6068
1.120000	54.522	162.7587
1.138000	54.437	161.6744
1.150000	54.377	160.9524
1.172000	54.258	159.6229
1.180000	54.212	159.1355
1.206000	54.056	157.5279
1.220000	53.968	156.6419
1.241000	53.830	155.2774
1.250000	53.768	154.6774
1.265000	53.664	153.6536
1.280000	53.558	152.5969
1.315000	53.300	149.9811
1.320000	53.263	149.5881
1.340000	53.111	147.9621
1.360000	52.957	146.2424
1.380000	52.801	144.4197
1.400000	52.645	142.4847
1.430000	52.411	139.3511
1.450000	52.255	137.0943
1.475000	52.060	134.0664
1.500000	51.837	130.7887
1.525000	51.587	127.2790
1.550000	51.315	123.5612
1.575000	51.030	119.6595
1.600000	50.738	115.5981
1.625000	50.447	111.4009
1.650000	50.163	107.0922
1.675000	49.895	102.6960
1.700000	49.648	98.2365
1.725000	49.431	93.7377
1.750000	49.250	89.2237
1.775000	49.113	84.7187
1.800000	49.026	80.2468
1.825000	48.997	75.8320
1.850000	49.030	71.4098
1.875000	49.120	66.8017
1.900000	49.260	62.0382
1.925000	49.445	57.1593
1.950000	49.668	52.2048
1.975000	49.924	47.2148
2.000000	50.206	42.2291
2.030000	50.572	36.3083
2.060000	50.957	30.5201
2.090000	51.350	24.9336
2.120000	51.742	19.6177
2.140000	51.998	16.2582
2.180000	52.481	10.0739
2.200000	52.703	7.2893
2.240000	53.152	2.2525
2.270000	53.506	-1.1345
2.300000	53.870	-4.2262
2.330000	54.240	-7.0583
2.360000	54.613	-9.6665
2.400000	55.107	-12.8574
2.430000	55.469	-15.0817
2.470000	55.935	-17.8900
2.500000	56.267	-19.9244
2.540000	56.678	-22.6090
2.580000	57.045	-25.3099
2.620000	57.382	-27.8390
2.650000	57.617	-29.6014
2.690000	57.910	-31.7916
2.720000	58.115	-33.3278
2.760000	58.372	-35.2539
2.800000	58.612	-37.0625
2.850000	58.892	-39.1956
2.900000	59.154	-41.2309
2.950000	59.401	-43.2043
3.000000	59.619	-45.0440
3.040000	59.775	-46.4089
3.070000	59.881	-47.3734
3.110000	60.012	-48.5845
3.150000	60.133	-49.7141
3.200000	60.274	-51.0192
3.250000	60.408	-52.2139
3.300000	60.541	-53.3075
3.350000	60.663	-54.2753
3.400000	60.769	-55.1065
3.450000	60.864	-55.8168
3.500000	60.952	-56.4221
3.550000	61.040	-56.9382
3.600000	61.131	-57.3810
3.650000	61.230	-57.7664
3.700000	61.338	-58.0789
3.750000	61.446	-58.2676
3.820000	61.600	-58.3755
3.870000	61.714	-58.3820
3.950000	61.909	-58.3529
4.000000	62.042	-58.3572
4.060000	62.214	-58.4108
4.120000	62.402	-58.4293
4.180000	62.601	-58.4266
4.250000	62.843	-58.4409
4.310000	63.055	-58.5055
4.370000	63.266	-58.6531
4.440000	63.513	-58.9551
4.500000	63.731	-59.2921
4.550000	63.915	-59.6219
4.620000	64.173	-60.1529
4.680000	64.388	-60.6674
4.750000	64.627	-61.3302
4.820000	64.853	-62.0748
4.870000	65.010	-62.6689
4.940000	65.222	-63.5648
5.000000	65.395	-64.3715
5.080000	65.612	-65.4679
5.150000	65.787	-66.4196
5.220000	65.946	-67.4045
5.300000	66.113	-68.5648
5.380000	66.265	-69.7259
5.450000	66.388	-70.7126
5.520000	66.502	-71.6500
5.600000	66.618	-72.6928
5.700000	66.745	-73.9520
5.800000	66.861	-75.1366
5.900000	66.974	-76.2202
6.000000	67.077	-77.2000
6.080000	67.154	-77.9250
6.150000	67.223	-78.5273
6.220000	67.295	-79.1086
6.300000	67.382	-79.7352
6.400000	67.492	-80.4520
6.500000	67.606	-81.1394
6.600000	67.726	-81.8448
6.700000	67.854	-82.5593
6.800000	67.988	-83.2742
6.900000	68.123	-84.0154
7.000000	68.257	-84.8074
7.100000	68.393	-85.6454
7.200000	68.528	-86.5175
7.300000	68.657	-87.4141
7.400000	68.779	-88.3373
7.500000	68.896	-89.2960
7.620000	69.028	-90.4572
7.750000	69.158	-91.6879
7.880000	69.275	-92.9116
8.000000	69.374	-94.0096
8.120000	69.468	-95.0478
8.250000	69.561	-96.1164
8.380000	69.651	-97.1293
8.500000	69.735	-98.0101
8.620000	69.817	-98.8358
8.750000	69.907	-99.6939
8.850000	69.979	-100.3408
9.000000	70.090	-101.2735
9.120000	70.180	-102.0096
9.250000	70.277	-102.8154
9.380000	70.376	-103.6205
9.500000	70.464	-104.3651
9.620000	70.551	-105.1157
9.750000	70.644	-105.9332
9.880000	70.723	-106.7397
10.000000	70.778	-107.4716
10.150000	70.829	-108.3707
10.300000	70.871	-109.2320
10.440000	70.899	-110.0004
10.600000	70.925	-110.8398
10.750000	70.949	-111.5856
10.900000	70.972	-112.2960
11.060000	70.996	-113.0319
11.200000	71.017	-113.6541
11.380000	71.042	-114.4417
11.500000	71.058	-114.9628
11.720000	71.084	-115.9072
11.800000	71.091	-116.2487
12.060000	71.110	-117.3456
12.200000	71.114	-117.9209
12.410000	71.117	-118.7632
12.500000	71.123	-119.1139
12.650000	71.142	-119.6843
12.800000	71.163	-120.2416
13.150000	71.207	-121.4980
13.200000	71.213	-121.6755
13.400000	71.236	-122.3809
13.600000	71.256	-123.0850
13.800000	71.274	-123.7917
14.000000	71.288	-124.4941
14.300000	71.302	-125.5347
14.500000	71.309	-126.2094
14.750000	71.315	-127.0300
15.000000	71.321	-127.8264
15.250000	71.328	-128.6096
15.500000	71.336	-129.3899
15.750000	71.344	-130.1709
16.000000	71.354	-130.9532
16.250000	71.366	-131.7247
16.500000	71.380	-132.4781
16.750000	71.393	-133.2032
17.000000	71.406	-133.8994
17.250000	71.421	-134.5704
17.500000	71.437	-135.2227
17.750000	71.454	-135.8640
18.000000	71.472	-136.4940
18.250000	71.488	-137.1123
18.500000	71.502	-137.7112
18.750000	71.514	-138.2871
19.000000	71.526	-138.8372
19.250000	71.537	-139.3635
19.500000	71.547	-139.8706
19.750000	71.557	-140.3622
20.000000	71.566	-140.8425
20.299999	71.577	-141.4035
20.600000	71.585	-141.9464
20.900000	71.591	-142.4700
21.200001	71.595	-142.9756
21.400000	71.598	-143.3060
21.799999	71.600	-143.9561
22.000000	71.600	-144.2777
22.400000	71.598	-144.9145
22.700001	71.595	-145.3840
23.000000	71.591	-145.8458
23.299999	71.588	-146.3029
23.600000	71.584	-146.7582
24.000000	71.579	-147.3641
24.299999	71.574	-147.8149
24.700001	71.569	-148.4048
25.000000	71.565	-148.8361
25.400000	71.563	-149.3988
25.799999	71.562	-149.9527
26.200001	71.561	-150.4964
26.500000	71.560	-150.8915
26.900000	71.559	-151.3947
27.200001	71.558	-151.7537
27.600000	71.559	-152.2142
28.000000	71.560	-152.6626
28.500000	71.559	-153.2073
29.000000	71.556	-153.7236
29.500000	71.551	-154.2094
30.000000	71.546	-154.6802
30.400000	71.541	-155.0554
30.700001	71.536	-155.3359
31.100000	71.528	-155.7052
31.500000	71.519	-156.0663
32.000000	71.507	-156.5067
32.500000	71.496	-156.9383
33.000000	71.486	-157.3657
33.500000	71.477	-157.7932
34.000000	71.468	-158.2205
34.500000	71.459	-158.6370
35.000000	71.449	-159.0323
35.500000	71.442	-159.4083
36.000000	71.436	-159.7751
36.500000	71.430	-160.1364
37.000000	71.423	-160.4857
37.500000	71.415	-160.8192
38.200001	71.404	-161.2677
38.700001	71.395	-161.5801
39.500000	71.380	-162.0671
40.000000	71.371	-162.3678
40.599998	71.361	-162.7255
41.200001	71.351	-163.0742
41.799999	71.341	-163.4138
42.500000	71.330	-163.8023
43.099998	71.322	-164.1256
43.700001	71.315	-164.4398
44.400002	71.307	-164.8007
45.000000	71.300	-165.1058
45.500000	71.294	-165.3552
46.200001	71.283	-165.6924
46.799999	71.274	-165.9651
47.500000	71.264	-166.2721
48.200001	71.255	-166.5823
48.700001	71.248	-166.8015
49.400002	71.237	-167.0953
50.000000	71.230	-167.3445
50.799999	71.220	-167.6776
51.500000	71.210	-167.9508
52.200001	71.203	-168.2132
53.000000	71.194	-168.5162
53.799999	71.185	-168.8109
54.500000	71.176	-169.0620
55.200001	71.167	-169.3069
56.000000	71.157	-169.5770
57.000000	71.145	-169.9167
58.000000	71.133	-170.2375
59.000000	71.123	-170.5483
60.000000	71.113	-170.8640
60.799999	71.104	-171.1011
61.500000	71.095	-171.3021
62.200001	71.087	-171.4967
63.000000	71.078	-171.7120
64.000000	71.064	-171.9901
65.000000	71.048	-172.2585
66.000000	71.035	-172.5161
67.000000	71.022	-172.7799
68.000000	71.008	-173.0250
69.000000	70.997	-173.2579
70.000000	70.985	-173.4943
71.000000	70.971	-173.7198
72.000000	70.958	-173.9379
73.000000	70.945	-174.1497
74.000000	70.934	-174.3543
75.000000	70.924	-174.5870
76.199997	70.904	-174.8388
77.500000	70.888	-175.0627
78.800003	70.875	-175.3112
80.000000	70.860	-175.5408
81.199997	70.845	-175.7598
82.500000	70.828	-175.9821
83.800003	70.813	-176.1931
85.000000	70.801	-176.3968
86.199997	70.787	-176.5936
87.500000	70.773	-176.8046
88.500000	70.762	-176.9508
90.000000	70.748	-177.1947
91.199997	70.733	-177.3631
92.500000	70.721	-177.5453
93.800003	70.707	-177.7251
95.000000	70.694	-177.8746
96.199997	70.683	-178.0402
97.500000	70.668	-178.2091
98.800003	70.654	-178.3740
100.000000	70.642	-178.5167
101.500000	70.627	-178.6976
103.000000	70.612	-178.8734
104.400002	70.600	-179.0217
106.000000	70.584	-179.2068
107.500000	70.572	-179.3695
109.000000	70.556	-179.5307
110.599998	70.541	-179.6852
112.000000	70.528	-179.8329
113.800003	70.510	-179.9955
115.000000	70.500	179.8840
117.199997	70.482	179.6762
118.000000	70.473	179.5977
120.599998	70.449	179.3961
122.000000	70.435	179.2686
124.099998	70.417	179.1118
125.000000	70.409	179.0428
126.500000	70.401	178.9254
128.000000	70.394	178.8184
131.500000	70.378	178.5604
132.000000	70.377	178.5190
134.000000	70.365	178.3657
136.000000	70.361	178.2371
138.000000	70.350	178.1121
140.000000	70.342	177.9778
143.000000	70.325	177.7908
145.000000	70.318	177.6853
147.500000	70.307	177.5585
150.000000	70.294	177.4227
152.500000	70.285	177.2803
155.000000	70.273	177.1475
157.500000	70.263	177.0319
160.000000	70.250	176.9250
162.500000	70.224	176.8158
165.000000	70.200	176.6957
167.500000	70.176	176.5811
170.000000	70.153	176.4955
172.500000	70.130	176.3795
175.000000	70.104	176.3004
177.500000	70.082	176.1896
180.000000	70.060	176.1146
182.500000	70.039	176.0201
185.000000	70.016	175.9437
187.500000	69.990	175.8610
190.000000	69.972	175.7910
192.500000	69.947	175.7117
195.000000	69.927	175.6387
197.500000	69.906	175.5719
200.000000	69.884	175.5109
203.000000	69.864	175.4315
206.000000	69.846	175.3605
209.000000	69.827	175.2941
212.000000	69.809	175.2181
214.000000	69.798	175.1717
218.000000	69.773	175.0930
220.000000	69.759	175.0715
224.000000	69.738	174.9722
227.000000	69.720	174.9216
230.000000	69.704	174.8791
233.000000	69.682	174.8248
236.000000	69.668	174.7969
240.000000	69.641	174.7205
243.000000	69.625	174.6879
247.000000	69.603	174.6165
250.000000	69.586	174.5946
254.000000	69.567	174.5649
258.000000	69.544	174.5075
262.000000	69.526	174.4812
265.000000	69.508	174.4664
269.000000	69.489	174.4213
272.000000	69.473	174.3989
276.000000	69.453	174.3732
280.000000	69.434	174.3560
285.000000	69.408	174.3218
290.000000	69.385	174.3187
295.000000	69.357	174.3333
300.000000	69.335	174.2843
304.000000	69.313	174.3145
307.000000	69.295	174.2900
311.000000	69.281	174.3026
315.000000	69.263	174.3231
320.000000	69.235	174.3058
325.000000	69.208	174.3265
330.000000	69.185	174.3455
335.000000	69.160	174.3793
340.000000	69.137	174.3970
345.000000	69.112	174.4218
350.000000	69.089	174.4436
355.000000	69.064	174.4915
360.000000	69.041	174.5203
365.000000	69.013	174.5827
370.000000	68.992	174.6129
375.000000	68.969	174.6805
382.000000	68.937	174.7652
387.000000	68.913	174.8152
395.000000	68.877	174.9214
400.000000	68.853	174.9998
406.000000	68.827	175.0867
412.000000	68.801	175.1797
418.000000	68.775	175.2405
425.000000	68.745	175.3859
431.000000	68.721	175.4943
437.000000	68.695	175.5979
444.000000	68.664	175.7352
450.000000	68.635	175.8348
455.000000	68.621	175.9272
462.000000	68.593	176.0630
468.000000	68.570	176.2052
475.000000	68.542	176.3256
482.000000	68.513	176.4877
487.000000	68.492	176.6387
494.000000	68.466	176.8035
500.000000	68.440	176.9359
508.000000	68.412	177.1534
515.000000	68.389	177.3172
522.000000	68.361	177.5304
530.000000	68.334	177.7480
538.000000	68.309	177.9634
545.000000	68.287	178.1870
552.000000	68.265	178.4202
560.000000	68.241	178.6497
570.000000	68.208	178.9796
580.000000	68.179	179.3167
590.000000	68.149	179.6691
600.000000	68.124	-179.9594
608.000000	68.100	-179.7151
615.000000	68.081	-179.4232
622.000000	68.064	-179.1593
630.000000	68.046	-178.8402
640.000000	68.026	-178.4662
650.000000	68.007	-178.0689
660.000000	67.989	-177.6271
670.000000	67.968	-177.2448
680.000000	67.953	-176.8179
690.000000	67.937	-176.4155
700.000000	67.920	-175.9133
710.000000	67.911	-175.4703
720.000000	67.891	-174.9286
730.000000	67.928	-174.5449
740.000000	67.882	-174.6157
750.000000	67.783	-174.0833
762.000000	67.735	-172.9779
775.000000	67.750	-171.9998
788.000000	67.789	-171.2741
800.000000	67.825	-170.6283
812.000000	67.837	-169.9662
825.000000	67.855	-169.2460
838.000000	67.865	-168.5212
850.000000	67.891	-167.8392
862.000000	67.916	-167.1522
875.000000	67.947	-166.4387
885.000000	67.975	-165.8900
900.000000	68.021	-165.0912
912.000000	68.067	-164.4625
925.000000	68.115	-163.8046
938.000000	68.173	-163.1421
950.000000	68.232	-162.5810
962.000000	68.289	-162.0464
975.000000	68.353	-161.5226
988.000000	68.426	-160.9830
1000.000000	68.500	-160.5597
1015.000000	68.592	-160.0027
1030.000000	68.702	-159.5244
1044.000000	68.796	-159.1073
1060.000000	68.912	-158.6724
1075.000000	69.016	-158.3387
1090.000000	69.127	-158.0323
1106.000000	69.237	-157.7549
1120.000000	69.329	-157.5486
1138.000000	69.448	-157.3173
1150.000000	69.526	-157.1877
1172.000000	69.665	-157.0060
1180.000000	69.714	-156.9489
1206.000000	69.862	-156.8309
1220.000000	69.940	-156.7601
1241.000000	70.054	-156.7119
1250.000000	70.100	-156.6920
1265.000000	70.146	-156.6784
1280.000000	70.191	-156.6551
1315.000000	70.287	-156.6804
1320.000000	70.305	-156.6719
1340.000000	70.352	-156.6378
1360.000000	70.399	-156.6620
1380.000000	70.441	-156.6754
1400.000000	70.485	-156.6978
1430.000000	70.547	-156.6724
1450.000000	70.589	-156.6990
1475.000000	70.638	-156.7289
1500.000000	70.684	-156.7291
1525.000000	70.732	-156.7320
1550.000000	70.776	-156.7513
1575.000000	70.822	-156.8069
1600.000000	70.866	-156.8009
1625.000000	70.955	-156.8345
1650.000000	71.038	-156.9083
1675.000000	71.118	-156.9797
1700.000000	71.202	-157.0207
1725.000000	71.286	-157.1270
1750.000000	71.361	-157.2539
1775.000000	71.446	-157.3536
1800.000000	71.528	-157.5049
1825.000000	71.611	-157.6899
1850.000000	71.686	-157.8644
1875.000000	71.760	-158.0714
1900.000000	71.837	-158.2755
1925.000000	71.913	-158.5375
1950.000000	71.988	-158.8275
1975.000000	72.057	-159.1376
2000.000000	72.129	-159.4738
2030.000000	72.199	-159.8469
2060.000000	72.270	-160.2709
2090.000000	72.335	-160.7530
2120.000000	72.395	-161.2531
2140.000000	72.431	-161.5743
2180.000000	72.510	-162.3204
2200.000000	72.541	-162.7060
2240.000000	72.600	-163.4843
2270.000000	72.641	-164.1002
2300.000000	72.675	-164.7580
2330.000000	72.701	-165.3892
2360.000000	72.729	-166.0609
2400.000000	72.753	-166.9196
2430.000000	72.767	-167.5887
2470.000000	72.774	-168.4771
2500.000000	72.779	-169.1495
2540.000000	72.771	-170.0308
2580.000000	72.762	-170.8810
2620.000000	72.731	-171.7135
2650.000000	72.714	-172.3018
2690.000000	72.685	-173.1042
2720.000000	72.657	-173.6583
2760.000000	72.610	-174.3528
2800.000000	72.565	-175.0096
2850.000000	72.504	-175.8142
2900.000000	72.432	-176.5114
2950.000000	72.361	-177.1511
3000.000000	72.281	-177.6786
3040.000000	72.227	-178.1526
3070.000000	72.181	-178.4084
3110.000000	72.120	-178.7550
3150.000000	72.059	-179.0639
3200.000000	71.983	-179.3734
3250.000000	71.908	-179.6271
3300.000000	71.839	-179.8517
3350.000000	71.769	-179.9708
3400.000000	71.704	179.8993
3450.000000	71.642	179.7866
3500.000000	71.579	179.7269
3550.000000	71.521	179.6725
3600.000000	71.467	179.6404
3650.000000	71.407	179.6161
3700.000000	71.333	179.7119
3750.000000	71.267	-179.7476
3820.000000	71.292	-179.3262
3870.000000	71.286	-179.2542
3950.000000	71.272	-179.1141
4000.000000	71.267	-179.0248
4060.000000	71.263	-178.8712
4120.000000	71.265	-178.7407
4180.000000	71.269	-178.6558
4250.000000	71.281	-178.5480
4310.000000	71.308	-178.4976
4370.000000	71.326	-178.4269
4440.000000	71.360	-178.4348
4500.000000	71.394	-178.5964
4550.000000	71.417	-178.6391
4620.000000	71.455	-178.8153
4680.000000	71.496	-179.0372
4750.000000	71.529	-179.4040
4820.000000	71.565	-179.7950
4870.000000	71.588	179.8846
4940.000000	71.611	179.3073
5000.000000	71.620	178.7849
5080.000000	71.602	178.0748
5150.000000	71.567	177.3397
5220.000000	71.522	176.6324
5300.000000	71.449	175.7692
5380.000000	71.360	174.8583
5450.000000	71.256	174.1444
5520.000000	71.144	173.4612
5600.000000	70.990	172.7823
5700.000000	70.773	172.0915
5800.000000	70.521	171.5637
5900.000000	70.273	171.3022
6000.000000	70.009	171.2704
6080.000000	69.787	171.4261
6150.000000	69.586	171.7242
6220.000000	69.398	172.1758
6300.000000	69.187	172.7702
6400.000000	69.024	173.6967
6500.000000	68.874	174.8801
6600.000000	68.754	176.2178
6700.000000	68.650	177.6675
6800.000000	68.569	179.2209
6900.000000	68.542	-179.0856
7000.000000	68.523	-177.2932
7100.000000	68.550	-175.5624
7200.000000	68.626	-173.8379
7300.000000	68.727	-172.2835
7400.000000	68.851	-170.6525
7500.000000	69.003	-169.1508
7620.000000	69.236	-167.4081
7750.000000	69.551	-165.7788
7880.000000	69.966	-164.4274
8000.000000	70.408	-163.6938
8120.000000	70.774	-163.8113
8250.000000	71.193	-164.8256
8380.000000	71.638	-166.9757
8500.000000	71.986	-170.0889
8620.000000	72.253	-174.0980
8750.000000	72.411	-179.6276
8850.000000	72.394	175.5841
9000.000000	72.121	168.1558
9120.000000	71.665	162.5027
9250.000000	70.990	157.2367
9380.000000	70.168	153.1826
9500.000000	69.342	150.5265
9620.000000	68.483	149.0648
9750.000000	67.625	148.4809
9880.000000	66.761	148.3237
10000.000000	65.957	149.0998
10150.000000	65.133	150.7117
10300.000000	64.396	152.9811
10440.000000	63.780	155.6495
10600.000000	63.155	159.1083
10750.000000	62.666	162.4273
10900.000000	62.257	166.1841
11060.000000	61.894	170.3279
11200.000000	61.642	174.2318
11380.000000	61.504	179.0383
11500.000000	61.404	-177.4529
11720.000000	61.418	-171.3089
11800.000000	61.462	-169.2618
12060.000000	61.794	-162.1835
12200.000000	62.083	-158.6337
12410.000000	62.722	-153.7045
12500.000000	63.079	-151.8726
12650.000000	63.752	-149.3097
12800.000000	64.576	-147.5311
13150.000000	67.229	-150.1599
13200.000000	67.676	-151.7969
13400.000000	69.384	-164.5491
13600.000000	69.851	172.9381
13800.000000	68.153	151.5346
14000.000000	65.525	140.7632
14300.000000	61.840	137.6336
14500.000000	59.838	139.5804
14750.000000	57.707	143.9211
15000.000000	55.970	149.7709
15250.000000	54.610	156.0864
15500.000000	53.308	162.5134
15750.000000	52.456	169.3112
16000.000000	51.754	177.0864
16250.000000	51.570	-177.4544
16500.000000	51.571	-170.7354
16750.000000	51.578	-165.4374
17000.000000	51.849	-160.5508
17250.000000	52.067	-156.8795
17500.000000	52.258	-152.6156
17750.000000	52.491	-146.6447
18000.000000	53.249	-143.8008
18250.000000	53.723	-145.4738
18500.000000	53.791	-146.5115
18750.000000	53.414	-149.3199
19000.000000	52.858	-150.5861
19250.000000	51.938	-152.5212
19500.000000	50.708	-151.9381
19750.000000	49.121	-149.7871
