* Measurement data measured by REW V5.20.13
* Source: C:\Users\marcu\OneDrive\Desktop\audio_db\Night Oblivion Butastur s.UU Foam R.txt
* Format: Comma/Tab/Space delimited data
* Dated: Aug 22, 2023 8:04:52 PM
* REW Settings:
*  C-weighting compensation: Off
*  Target level: 75.0 dB
* Note: ; Measurement imported from C:\Users\marcu\OneDrive\Desktop\audio_db\Night Oblivion Butastur s.UU Foam R.txt Format: Comma/Tab/Space delimited data 54613 values loaded, 0 Hz to 20,000 Hz 
* Measurement: Right Oblivion Butastur s.UU
* Smoothing: None
* Frequency Step: 1/48 octave
* Start Frequency: 1.000 Hz
*
* Freq(Hz)	SPL(dB)	Phase(degrees)
1.000000	58.526	-89.0160
1.015000	58.369	-90.7523
1.030000	58.212	-92.5248
1.044000	58.066	-94.2135
1.060000	57.899	-96.1865
1.075000	57.744	-98.0803
1.090000	57.589	-100.0188
1.106000	57.424	-102.1386
1.120000	57.274	-104.0384
1.138000	57.075	-106.5399
1.150000	56.939	-108.2426
1.172000	56.682	-111.4324
1.180000	56.586	-112.6130
1.206000	56.272	-116.5205
1.220000	56.100	-118.6661
1.241000	55.842	-121.9336
1.250000	55.732	-123.3507
1.265000	55.549	-125.7329
1.280000	55.367	-128.1386
1.315000	54.953	-133.8297
1.320000	54.895	-134.6503
1.340000	54.670	-137.9484
1.360000	54.455	-141.2672
1.380000	54.250	-144.6010
1.400000	54.059	-147.9444
1.430000	53.800	-152.9650
1.450000	53.650	-156.3076
1.475000	53.488	-160.4865
1.500000	53.354	-164.7871
1.525000	53.244	-169.2155
1.550000	53.155	-173.7440
1.575000	53.086	-178.3447
1.600000	53.033	177.0102
1.625000	52.993	172.3486
1.650000	52.965	167.6983
1.675000	52.946	163.0871
1.700000	52.933	158.5428
1.725000	52.923	154.0933
1.750000	52.914	149.7664
1.775000	52.903	145.5899
1.800000	52.889	141.5917
1.825000	52.867	137.7995
1.850000	52.844	134.2036
1.875000	52.840	130.7265
1.900000	52.850	127.3620
1.925000	52.871	124.1077
1.950000	52.900	120.9609
1.975000	52.931	117.9193
2.000000	52.961	114.9803
2.030000	52.991	111.5852
2.060000	53.006	108.3298
2.090000	53.002	105.2097
2.120000	52.970	102.2205
2.140000	52.930	100.2982
2.180000	52.796	96.6172
2.200000	52.698	94.8541
2.240000	52.462	91.0832
2.270000	52.257	88.0381
2.300000	52.028	84.9358
2.330000	51.774	81.8918
2.360000	51.497	79.0222
2.400000	51.090	75.6669
2.430000	50.756	73.6539
2.470000	50.275	71.8612
2.500000	49.887	71.3352
2.540000	49.332	71.9453
2.580000	48.714	74.3571
2.620000	47.873	79.0321
2.650000	47.117	83.8161
2.690000	46.010	91.4917
2.720000	45.154	97.9439
2.760000	44.047	107.0675
2.800000	43.060	116.3214
2.850000	42.127	127.2999
2.900000	41.685	136.6996
2.950000	41.905	143.7435
3.000000	42.841	149.6764
3.040000	43.993	153.9005
3.070000	45.027	156.7596
3.110000	46.554	160.1547
3.150000	48.162	163.0672
3.200000	50.135	166.0191
3.250000	51.889	168.1942
3.300000	53.235	169.5771
3.350000	54.255	169.8077
3.400000	55.118	168.8489
3.450000	55.851	167.0089
3.500000	56.484	164.5962
3.550000	57.045	161.9190
3.600000	57.561	159.2857
3.650000	58.062	157.0047
3.700000	58.547	155.1244
3.750000	58.970	153.1931
3.820000	59.469	150.4284
3.870000	59.772	148.4564
3.950000	60.191	145.4004
4.000000	60.426	143.6055
4.060000	60.688	141.5992
4.120000	60.903	139.6609
4.180000	61.074	137.8015
4.250000	61.232	135.7728
4.310000	61.342	134.1894
4.370000	61.439	132.7820
4.440000	61.537	131.3839
4.500000	61.587	130.3615
4.550000	61.612	129.6297
4.620000	61.633	128.7869
4.680000	61.651	128.2314
4.750000	61.689	127.7762
4.820000	61.741	127.5794
4.870000	61.776	127.6253
4.940000	61.829	127.8762
5.000000	61.886	128.1973
5.080000	61.990	128.6651
5.150000	62.120	129.0242
5.220000	62.286	129.4761
5.300000	62.511	130.0793
5.380000	62.760	130.6440
5.450000	62.990	130.9985
5.520000	63.226	131.1387
5.600000	63.520	131.1105
5.700000	63.912	130.8484
5.800000	64.299	130.3502
5.900000	64.654	129.6195
6.000000	64.993	128.5865
6.080000	65.252	127.6064
6.150000	65.463	126.6957
6.220000	65.658	125.7836
6.300000	65.858	124.7149
6.400000	66.078	123.2810
6.500000	66.273	121.8386
6.600000	66.447	120.4950
6.700000	66.594	119.2415
6.800000	66.719	118.0496
6.900000	66.832	116.9564
7.000000	66.947	115.9983
7.100000	67.052	115.1808
7.200000	67.154	114.4675
7.300000	67.263	113.8188
7.400000	67.386	113.2308
7.500000	67.517	112.7341
7.620000	67.685	112.1681
7.750000	67.884	111.4854
7.880000	68.102	110.7745
8.000000	68.310	110.0603
8.120000	68.515	109.2415
8.250000	68.740	108.2453
8.380000	68.959	107.1773
8.500000	69.146	106.1457
8.620000	69.322	105.0503
8.750000	69.500	103.8559
8.850000	69.627	102.9660
9.000000	69.800	101.6418
9.120000	69.930	100.6259
9.250000	70.064	99.6008
9.380000	70.190	98.6390
9.500000	70.305	97.7975
9.620000	70.422	97.0031
9.750000	70.548	96.1960
9.880000	70.676	95.4066
10.000000	70.798	94.6839
10.150000	70.951	93.7960
10.300000	71.103	92.8896
10.440000	71.245	92.0230
10.600000	71.401	91.0206
10.750000	71.539	90.0680
10.900000	71.670	89.1088
11.060000	71.801	88.1078
11.200000	71.907	87.2468
11.380000	72.036	86.1765
11.500000	72.118	85.4925
11.720000	72.261	84.2838
11.800000	72.312	83.8575
12.060000	72.472	82.5130
12.200000	72.556	81.7965
12.410000	72.678	80.7317
12.500000	72.728	80.2741
12.650000	72.808	79.5096
12.800000	72.885	78.7487
13.150000	73.043	76.9988
13.200000	73.064	76.7546
13.400000	73.143	75.7944
13.600000	73.217	74.8581
13.800000	73.288	73.9479
14.000000	73.357	73.0456
14.300000	73.457	71.6965
14.500000	73.520	70.7833
14.750000	73.594	69.6293
15.000000	73.658	68.4651
15.250000	73.714	67.3117
15.500000	73.764	66.1826
15.750000	73.810	65.0825
16.000000	73.853	64.0097
16.250000	73.897	62.9491
16.500000	73.939	61.8936
16.750000	73.980	60.8342
17.000000	74.018	59.7785
17.250000	74.052	58.7340
17.500000	74.083	57.7121
17.750000	74.112	56.7192
18.000000	74.140	55.7517
18.250000	74.170	54.8047
18.500000	74.199	53.8644
18.750000	74.228	52.9281
19.000000	74.256	51.9931
19.250000	74.279	51.0670
19.500000	74.299	50.1576
19.750000	74.316	49.2706
20.000000	74.332	48.4094
20.299999	74.349	47.4024
20.600000	74.365	46.4155
20.900000	74.378	45.4396
21.200001	74.389	44.4723
21.400000	74.394	43.8357
21.799999	74.399	42.5899
22.000000	74.400	41.9827
22.400000	74.402	40.7963
22.700001	74.402	39.9217
23.000000	74.403	39.0516
23.299999	74.403	38.1841
23.600000	74.401	37.3207
24.000000	74.397	36.1801
24.299999	74.395	35.3333
24.700001	74.390	34.2134
25.000000	74.386	33.3802
25.400000	74.380	32.2822
25.799999	74.373	31.2065
26.200001	74.366	30.1566
26.500000	74.360	29.3842
26.900000	74.353	28.3708
27.200001	74.348	27.6237
27.600000	74.339	26.6486
28.000000	74.330	25.7023
28.500000	74.316	24.5586
29.000000	74.302	23.4507
29.500000	74.285	22.3766
30.000000	74.269	21.3346
30.400000	74.256	20.5153
30.700001	74.245	19.9033
31.100000	74.229	19.0895
31.500000	74.211	18.2853
32.000000	74.184	17.3083
32.500000	74.158	16.3646
33.000000	74.133	15.4401
33.500000	74.108	14.5269
34.000000	74.083	13.6317
34.500000	74.058	12.7601
35.000000	74.034	11.9080
35.500000	74.009	11.0712
36.000000	73.983	10.2545
36.500000	73.957	9.4612
37.000000	73.931	8.6891
37.500000	73.904	7.9363
38.200001	73.863	6.9205
38.700001	73.835	6.2191
39.500000	73.789	5.1169
40.000000	73.759	4.4371
40.599998	73.722	3.6361
41.200001	73.683	2.8566
41.799999	73.644	2.1042
42.500000	73.600	1.2574
43.099998	73.564	0.5428
43.700001	73.526	-0.1617
44.400002	73.480	-0.9513
45.000000	73.441	-1.5967
45.500000	73.409	-2.1210
46.200001	73.364	-2.8379
46.799999	73.324	-3.4340
47.500000	73.277	-4.1123
48.200001	73.230	-4.7731
48.700001	73.194	-5.2305
49.400002	73.146	-5.8514
50.000000	73.105	-6.3727
50.799999	73.050	-7.0566
51.500000	73.001	-7.6331
52.200001	72.953	-8.1837
53.000000	72.901	-8.8027
53.799999	72.847	-9.4170
54.500000	72.799	-9.9310
55.200001	72.753	-10.4263
56.000000	72.699	-10.9828
57.000000	72.632	-11.6489
58.000000	72.566	-12.2802
59.000000	72.501	-12.9012
60.000000	72.436	-13.5102
60.799999	72.381	-13.9711
61.500000	72.335	-14.3521
62.200001	72.290	-14.7197
63.000000	72.242	-15.1447
64.000000	72.178	-15.6848
65.000000	72.111	-16.1830
66.000000	72.048	-16.6492
67.000000	71.986	-17.1067
68.000000	71.924	-17.5515
69.000000	71.860	-17.9636
70.000000	71.801	-18.3447
71.000000	71.745	-18.7382
72.000000	71.685	-19.1371
73.000000	71.622	-19.5046
74.000000	71.564	-19.8473
75.000000	71.507	-20.1970
76.199997	71.436	-20.6090
77.500000	71.361	-21.0181
78.800003	71.287	-21.4126
80.000000	71.221	-21.7600
81.199997	71.155	-22.0912
82.500000	71.085	-22.4298
83.800003	71.016	-22.7502
85.000000	70.954	-23.0413
86.199997	70.893	-23.3220
87.500000	70.826	-23.6255
88.500000	70.775	-23.8434
90.000000	70.701	-24.1547
91.199997	70.643	-24.3816
92.500000	70.583	-24.6417
93.800003	70.520	-24.8911
95.000000	70.463	-25.1049
96.199997	70.408	-25.3301
97.500000	70.347	-25.5472
98.800003	70.288	-25.7430
100.000000	70.236	-25.9156
101.500000	70.170	-26.1033
103.000000	70.105	-26.2864
104.400002	70.045	-26.4511
106.000000	69.978	-26.6437
107.500000	69.917	-26.8271
109.000000	69.855	-27.0003
110.599998	69.792	-27.1642
112.000000	69.738	-27.3076
113.800003	69.667	-27.4864
115.000000	69.622	-27.5920
117.199997	69.541	-27.7713
118.000000	69.512	-27.8317
120.599998	69.424	-28.0357
122.000000	69.376	-28.1337
124.099998	69.306	-28.2739
125.000000	69.275	-28.3248
126.500000	69.226	-28.4084
128.000000	69.176	-28.4996
131.500000	69.057	-28.6969
132.000000	69.041	-28.7211
134.000000	68.979	-28.8129
136.000000	68.922	-28.8879
138.000000	68.868	-28.9667
140.000000	68.810	-29.0423
143.000000	68.720	-29.1498
145.000000	68.664	-29.2065
147.500000	68.598	-29.2685
150.000000	68.534	-29.3290
152.500000	68.471	-29.3963
155.000000	68.409	-29.4730
157.500000	68.347	-29.5165
160.000000	68.290	-29.5317
162.500000	68.232	-29.5461
165.000000	68.176	-29.5716
167.500000	68.118	-29.6024
170.000000	68.061	-29.6279
172.500000	68.010	-29.6401
175.000000	67.961	-29.6484
177.500000	67.910	-29.6489
180.000000	67.859	-29.6481
182.500000	67.808	-29.6550
185.000000	67.758	-29.6631
187.500000	67.712	-29.6647
190.000000	67.671	-29.6339
192.500000	67.630	-29.6082
195.000000	67.588	-29.6097
197.500000	67.542	-29.6180
200.000000	67.500	-29.6140
203.000000	67.451	-29.5798
206.000000	67.405	-29.5374
209.000000	67.361	-29.5132
212.000000	67.317	-29.5077
214.000000	67.288	-29.5046
218.000000	67.228	-29.4712
220.000000	67.197	-29.4321
224.000000	67.138	-29.3475
227.000000	67.097	-29.3048
230.000000	67.058	-29.2722
233.000000	67.021	-29.2377
236.000000	66.982	-29.1952
240.000000	66.926	-29.1249
243.000000	66.888	-29.0721
247.000000	66.841	-29.0266
250.000000	66.810	-29.0009
254.000000	66.772	-28.9439
258.000000	66.728	-28.8741
262.000000	66.682	-28.8033
265.000000	66.649	-28.7506
269.000000	66.608	-28.6878
272.000000	66.580	-28.6428
276.000000	66.544	-28.5667
280.000000	66.506	-28.4779
285.000000	66.452	-28.3745
290.000000	66.404	-28.2898
295.000000	66.361	-28.1992
300.000000	66.318	-28.1044
304.000000	66.286	-28.0177
307.000000	66.261	-27.9527
311.000000	66.227	-27.8777
315.000000	66.195	-27.8152
320.000000	66.157	-27.7251
325.000000	66.122	-27.6090
330.000000	66.087	-27.4946
335.000000	66.053	-27.3861
340.000000	66.020	-27.2903
345.000000	65.987	-27.1934
350.000000	65.955	-27.0775
355.000000	65.925	-26.9713
360.000000	65.897	-26.8690
365.000000	65.867	-26.7491
370.000000	65.836	-26.6251
375.000000	65.809	-26.5203
382.000000	65.775	-26.3634
387.000000	65.750	-26.2391
395.000000	65.708	-26.0660
400.000000	65.683	-25.9357
406.000000	65.655	-25.7932
412.000000	65.632	-25.6552
418.000000	65.609	-25.4974
425.000000	65.582	-25.3346
431.000000	65.560	-25.2119
437.000000	65.540	-25.0590
444.000000	65.518	-24.8754
450.000000	65.497	-24.7214
455.000000	65.480	-24.5844
462.000000	65.461	-24.4016
468.000000	65.443	-24.2446
475.000000	65.425	-24.0551
482.000000	65.407	-23.8784
487.000000	65.395	-23.7395
494.000000	65.383	-23.5477
500.000000	65.372	-23.4081
508.000000	65.356	-23.1774
515.000000	65.345	-22.9845
522.000000	65.337	-22.7938
530.000000	65.331	-22.5688
538.000000	65.324	-22.3498
545.000000	65.317	-22.1542
552.000000	65.312	-21.9465
560.000000	65.308	-21.7117
570.000000	65.306	-21.4022
580.000000	65.306	-21.1003
590.000000	65.313	-20.8217
600.000000	65.321	-20.5317
608.000000	65.327	-20.3033
615.000000	65.335	-20.0882
622.000000	65.342	-19.8709
630.000000	65.354	-19.6135
640.000000	65.367	-19.2980
650.000000	65.381	-18.9739
660.000000	65.402	-18.6552
670.000000	65.425	-18.3500
680.000000	65.448	-18.0399
690.000000	65.476	-17.7198
700.000000	65.509	-17.3919
710.000000	65.544	-17.0681
720.000000	65.579	-16.7506
730.000000	65.619	-16.4202
740.000000	65.664	-16.1050
750.000000	65.715	-15.7673
762.000000	65.779	-15.3975
775.000000	65.853	-15.0076
788.000000	65.932	-14.6118
800.000000	66.009	-14.2331
812.000000	66.089	-13.8769
825.000000	66.183	-13.5164
838.000000	66.283	-13.1658
850.000000	66.378	-12.8420
862.000000	66.476	-12.5511
875.000000	66.591	-12.2679
885.000000	66.682	-12.0710
900.000000	66.823	-11.7803
912.000000	66.940	-11.5812
925.000000	67.073	-11.4025
938.000000	67.216	-11.2677
950.000000	67.353	-11.1981
962.000000	67.492	-11.1770
975.000000	67.643	-11.1749
988.000000	67.799	-11.1992
1000.000000	67.942	-11.2598
1015.000000	68.120	-11.4304
1030.000000	68.297	-11.6592
1044.000000	68.464	-11.9067
1060.000000	68.652	-12.2662
1075.000000	68.829	-12.6786
1090.000000	69.003	-13.1663
1106.000000	69.188	-13.7351
1120.000000	69.343	-14.2694
1138.000000	69.538	-15.0353
1150.000000	69.664	-15.5830
1172.000000	69.888	-16.6591
1180.000000	69.967	-17.0658
1206.000000	70.212	-18.4691
1220.000000	70.336	-19.2609
1241.000000	70.517	-20.5081
1250.000000	70.591	-21.0544
1265.000000	70.710	-21.9775
1280.000000	70.824	-22.9217
1315.000000	71.063	-25.1711
1320.000000	71.094	-25.4989
1340.000000	71.214	-26.8181
1360.000000	71.324	-28.1415
1380.000000	71.425	-29.4833
1400.000000	71.513	-30.8182
1430.000000	71.628	-32.8236
1450.000000	71.691	-34.1535
1475.000000	71.760	-35.7979
1500.000000	71.814	-37.4164
1525.000000	71.858	-39.0145
1550.000000	71.889	-40.5619
1575.000000	71.909	-42.0694
1600.000000	71.918	-43.5417
1625.000000	71.915	-44.9431
1650.000000	71.898	-46.2657
1675.000000	71.874	-47.5273
1700.000000	71.844	-48.7324
1725.000000	71.806	-49.8615
1750.000000	71.763	-50.9120
1775.000000	71.713	-51.8961
1800.000000	71.659	-52.7910
1825.000000	71.603	-53.6194
1850.000000	71.543	-54.3799
1875.000000	71.483	-55.0672
1900.000000	71.420	-55.6899
1925.000000	71.355	-56.2456
1950.000000	71.290	-56.7361
1975.000000	71.227	-57.1682
2000.000000	71.166	-57.5471
2030.000000	71.097	-57.9506
2060.000000	71.028	-58.2735
2090.000000	70.961	-58.5339
2120.000000	70.897	-58.7322
2140.000000	70.860	-58.8334
2180.000000	70.792	-58.9869
2200.000000	70.762	-59.0251
2240.000000	70.705	-59.0502
2270.000000	70.668	-59.0353
2300.000000	70.633	-58.9754
2330.000000	70.602	-58.8794
2360.000000	70.576	-58.7578
2400.000000	70.547	-58.5567
2430.000000	70.531	-58.3605
2470.000000	70.516	-58.0669
2500.000000	70.510	-57.8247
2540.000000	70.514	-57.4530
2580.000000	70.527	-57.0544
2620.000000	70.553	-56.6131
2650.000000	70.578	-56.2703
2690.000000	70.622	-55.7769
2720.000000	70.663	-55.3986
2760.000000	70.732	-54.8940
2800.000000	70.818	-54.3838
2850.000000	70.952	-53.7738
2900.000000	71.116	-53.2267
2950.000000	71.315	-52.8161
3000.000000	71.547	-52.6704
3040.000000	71.748	-52.8387
3070.000000	71.902	-53.1694
3110.000000	72.103	-53.9253
3150.000000	72.283	-55.0483
3200.000000	72.447	-56.9041
3250.000000	72.522	-59.0531
3300.000000	72.497	-61.2169
3350.000000	72.386	-63.1144
3400.000000	72.214	-64.5659
3450.000000	72.006	-65.4991
3500.000000	71.787	-65.9385
3550.000000	71.570	-65.9271
3600.000000	71.368	-65.5480
3650.000000	71.189	-64.8575
3700.000000	71.042	-63.9174
3750.000000	70.922	-62.7778
3820.000000	70.807	-60.9161
3870.000000	70.766	-59.4609
3950.000000	70.775	-57.0266
4000.000000	70.829	-55.5065
4060.000000	70.938	-53.7468
4120.000000	71.093	-52.1185
4180.000000	71.287	-50.6776
4250.000000	71.556	-49.3110
4310.000000	71.815	-48.4856
4370.000000	72.090	-48.0253
4440.000000	72.415	-47.9893
4500.000000	72.683	-48.4126
4550.000000	72.887	-49.0880
4620.000000	73.128	-50.4708
4680.000000	73.273	-51.9801
4750.000000	73.359	-53.9846
4820.000000	73.350	-56.0192
4870.000000	73.286	-57.3815
4940.000000	73.125	-58.9990
5000.000000	72.933	-60.0193
5080.000000	72.623	-60.7785
5150.000000	72.325	-60.8517
5220.000000	72.020	-60.4017
5300.000000	71.683	-59.2893
5380.000000	71.384	-57.6167
5450.000000	71.174	-55.7681
5520.000000	71.035	-53.6738
5600.000000	70.999	-51.3271
5700.000000	71.121	-49.6117
5800.000000	71.057	-50.8788
5900.000000	70.449	-50.0135
6000.000000	70.066	-46.8109
6080.000000	69.852	-44.0642
6150.000000	69.704	-41.4961
6220.000000	69.600	-38.8354
6300.000000	69.534	-35.7836
6400.000000	69.508	-32.0162
6500.000000	69.525	-28.3214
6600.000000	69.585	-24.7438
6700.000000	69.689	-21.3096
6800.000000	69.829	-18.0397
6900.000000	69.999	-14.9550
7000.000000	70.198	-12.0758
7100.000000	70.420	-9.4243
7200.000000	70.667	-7.0673
7300.000000	70.928	-5.0793
7400.000000	71.191	-3.4459
7500.000000	71.445	-2.1595
7620.000000	71.732	-1.0828
7750.000000	72.002	-0.4504
7880.000000	72.211	-0.3179
8000.000000	72.342	-0.5620
8120.000000	72.403	-1.0475
8250.000000	72.384	-1.6912
8380.000000	72.274	-2.2699
8500.000000	72.106	-2.5804
8620.000000	71.897	-2.6725
8750.000000	71.617	-2.6526
8850.000000	71.348	-2.4174
9000.000000	70.889	-1.2928
9120.000000	70.516	0.2290
9250.000000	70.123	2.3320
9380.000000	69.755	4.8219
9500.000000	69.446	7.4418
9620.000000	69.179	10.2966
9750.000000	68.934	13.5437
9880.000000	68.734	16.9341
10000.000000	68.600	20.1885
10150.000000	68.515	24.1937
10300.000000	68.501	27.9418
10440.000000	68.550	31.1703
10600.000000	68.678	34.2876
10750.000000	68.847	36.3275
10900.000000	69.001	37.1701
11060.000000	69.007	36.7357
11200.000000	68.750	36.1262
11380.000000	68.145	37.3272
11500.000000	67.791	39.9556
11720.000000	67.764	44.8308
11800.000000	67.858	45.3322
12060.000000	67.744	42.4978
12200.000000	67.275	40.1962
12410.000000	66.132	38.2620
12500.000000	65.540	38.2171
12650.000000	64.491	39.1723
12800.000000	63.409	41.2740
13150.000000	60.949	49.6130
13200.000000	60.618	51.1121
13400.000000	59.359	57.5746
13600.000000	58.215	64.4249
13800.000000	57.155	71.2377
14000.000000	56.117	78.0436
14300.000000	54.780	87.9590
14500.000000	53.726	92.9955
14750.000000	51.881	101.0355
15000.000000	50.235	114.7194
15250.000000	49.146	126.1487
15500.000000	47.671	141.6617
15750.000000	47.570	158.1956
16000.000000	47.766	170.2740
16250.000000	48.160	173.2988
16500.000000	46.925	175.9953
16750.000000	45.433	-174.9739
17000.000000	44.170	-163.6106
17250.000000	43.049	-151.1209
17500.000000	41.997	-137.9813
17750.000000	40.832	-123.8976
18000.000000	39.352	-105.7207
18250.000000	38.686	-74.5563
18500.000000	42.701	-44.5865
18750.000000	46.329	-48.6037
19000.000000	46.780	-66.7414
19250.000000	44.697	-76.6763
19500.000000	41.412	-70.2064
19750.000000	39.635	-53.9596
