* Measurement data measured by REW V5.20.13
* Source: C:\Users\marcu\OneDrive\Desktop\audio_db\Penon Fan 2 - S2 - Foam R.txt
* Format: Comma/Tab/Space delimited data
* Dated: Jun 2, 2023 7:44:43 PM
* REW Settings:
*  C-weighting compensation: Off
*  Target level: 75.0 dB
* Note: ; Measurement imported from C:\Users\marcu\OneDrive\Desktop\audio_db\Penon Fan 2 - S2 - Foam R.txt Format: Comma/Tab/Space delimited data 54613 values loaded, 0 Hz to 20,000 Hz 
* Measurement: Penon Fan 2 - S2 - Foam R
* Smoothing: None
* Frequency Step: 1/48 octave
* Start Frequency: 1.000 Hz
*
* Freq(Hz)	SPL(dB)	Phase(degrees)
1.000000	60.133	-61.9892
1.015000	59.951	-62.8599
1.030000	59.761	-63.7207
1.044000	59.577	-64.5145
1.060000	59.357	-65.4096
1.075000	59.142	-66.2362
1.090000	58.917	-67.0498
1.106000	58.666	-67.9286
1.120000	58.437	-68.8470
1.138000	58.129	-70.2418
1.150000	57.917	-71.2847
1.172000	57.512	-73.3809
1.180000	57.360	-74.1890
1.206000	56.851	-76.9203
1.220000	56.568	-78.4221
1.241000	56.133	-80.6574
1.250000	55.943	-81.5935
1.265000	55.622	-83.1033
1.280000	55.296	-84.5271
1.315000	54.518	-87.3674
1.320000	54.405	-87.7036
1.340000	53.951	-88.8360
1.360000	53.492	-89.5810
1.380000	53.031	-89.8759
1.400000	52.567	-89.6582
1.430000	51.872	-88.2336
1.450000	51.409	-86.4604
1.475000	50.826	-83.1653
1.500000	50.166	-78.3005
1.525000	49.428	-71.9918
1.550000	48.634	-64.4765
1.575000	47.803	-55.9919
1.600000	46.955	-46.7754
1.625000	46.112	-37.0641
1.650000	45.294	-27.0955
1.675000	44.521	-17.1069
1.700000	43.813	-7.3355
1.725000	43.191	1.9813
1.750000	42.675	10.6062
1.775000	42.286	18.3020
1.800000	42.044	24.8312
1.825000	41.970	29.9567
1.850000	42.088	33.6683
1.875000	42.410	36.4397
1.900000	42.909	38.3830
1.925000	43.558	39.5904
1.950000	44.330	40.1542
1.975000	45.199	40.1667
2.000000	46.138	39.7200
2.030000	47.318	38.7077
2.060000	48.514	37.3265
2.090000	49.679	35.7356
2.120000	50.767	34.0944
2.140000	51.426	33.0511
2.180000	52.525	31.2988
2.200000	52.938	30.6811
2.240000	53.598	29.3633
2.270000	54.000	28.1216
2.300000	54.332	26.6984
2.330000	54.604	25.1257
2.360000	54.824	23.4354
2.400000	55.055	21.0542
2.430000	55.192	19.2142
2.470000	55.344	16.7496
2.500000	55.448	14.9341
2.540000	55.589	12.6184
2.580000	55.747	10.4675
2.620000	55.878	8.3231
2.650000	55.951	6.6984
2.690000	56.020	4.5230
2.720000	56.052	2.8933
2.760000	56.072	0.7357
2.800000	56.068	-1.3899
2.850000	56.038	-3.9776
2.900000	55.985	-6.4591
2.950000	55.916	-8.8189
3.000000	55.812	-11.1602
3.040000	55.703	-13.0130
3.070000	55.609	-14.3750
3.110000	55.469	-16.1351
3.150000	55.315	-17.8092
3.200000	55.109	-19.7446
3.250000	54.892	-21.4614
3.300000	54.672	-22.9135
3.350000	54.424	-24.1518
3.400000	54.140	-25.2214
3.450000	53.837	-26.1037
3.500000	53.531	-26.7801
3.550000	53.239	-27.2319
3.600000	52.977	-27.4406
3.650000	52.762	-27.3875
3.700000	52.593	-26.9861
3.750000	52.438	-26.1328
3.820000	52.259	-24.4147
3.870000	52.169	-22.9920
3.950000	52.115	-20.7402
4.000000	52.149	-19.5529
4.060000	52.277	-18.4784
4.120000	52.513	-17.4572
4.180000	52.831	-16.5079
4.250000	53.268	-15.6080
4.310000	53.666	-15.1145
4.370000	54.054	-14.9696
4.440000	54.482	-15.3467
4.500000	54.871	-16.1172
4.550000	55.205	-17.0068
4.620000	55.673	-18.5246
4.680000	56.059	-19.9800
4.750000	56.475	-21.7307
4.820000	56.847	-23.5600
4.870000	57.098	-25.0172
4.940000	57.428	-27.1925
5.000000	57.690	-29.1119
5.080000	58.013	-31.6313
5.150000	58.268	-33.7024
5.220000	58.493	-35.7575
5.300000	58.718	-38.0907
5.380000	58.916	-40.3311
5.450000	59.074	-42.1528
5.520000	59.222	-43.7977
5.600000	59.365	-45.5179
5.700000	59.515	-47.4404
5.800000	59.655	-49.0837
5.900000	59.806	-50.4125
6.000000	59.952	-51.3815
6.080000	60.069	-51.9580
6.150000	60.181	-52.3682
6.220000	60.308	-52.7318
6.300000	60.473	-53.0529
6.400000	60.701	-53.2644
6.500000	60.948	-53.4078
6.600000	61.211	-53.6359
6.700000	61.498	-53.9385
6.800000	61.804	-54.2736
6.900000	62.113	-54.6889
7.000000	62.410	-55.2309
7.100000	62.706	-55.9048
7.200000	62.996	-56.6669
7.300000	63.270	-57.4709
7.400000	63.522	-58.3071
7.500000	63.758	-59.2083
7.620000	64.019	-60.2958
7.750000	64.274	-61.3873
7.880000	64.498	-62.4274
8.000000	64.687	-63.3134
8.120000	64.868	-64.0856
8.250000	65.048	-64.8014
8.380000	65.222	-65.4283
8.500000	65.386	-65.9425
8.620000	65.550	-66.3764
8.750000	65.729	-66.8207
8.850000	65.870	-67.1791
9.000000	66.087	-67.7069
9.120000	66.259	-68.1556
9.250000	66.442	-68.7008
9.380000	66.623	-69.2920
9.500000	66.782	-69.8685
9.620000	66.935	-70.4765
9.750000	67.093	-71.1713
9.880000	67.233	-71.8704
10.000000	67.342	-72.5103
10.150000	67.455	-73.3101
10.300000	67.557	-74.0819
10.440000	67.640	-74.7727
10.600000	67.728	-75.5408
10.750000	67.812	-76.2410
10.900000	67.895	-76.9266
11.060000	67.984	-77.6701
11.200000	68.063	-78.3273
11.380000	68.163	-79.1949
11.500000	68.229	-79.7932
11.720000	68.346	-80.9154
11.800000	68.386	-81.3298
12.060000	68.511	-82.6930
12.200000	68.574	-83.4197
12.410000	68.666	-84.5001
12.500000	68.711	-84.9547
12.650000	68.794	-85.7016
12.800000	68.880	-86.4387
13.150000	69.083	-88.1277
13.200000	69.113	-88.3673
13.400000	69.228	-89.3236
13.600000	69.342	-90.2724
13.800000	69.454	-91.2147
14.000000	69.562	-92.1364
14.300000	69.717	-93.4724
14.500000	69.817	-94.3206
14.750000	69.941	-95.3377
15.000000	70.065	-96.3112
15.250000	70.187	-97.2582
15.500000	70.306	-98.1891
15.750000	70.422	-99.1075
16.000000	70.534	-100.0118
16.250000	70.642	-100.8904
16.500000	70.747	-101.7378
16.750000	70.846	-102.5468
17.000000	70.941	-103.3217
17.250000	71.032	-104.0682
17.500000	71.119	-104.7950
17.750000	71.205	-105.5132
18.000000	71.287	-106.2274
18.250000	71.365	-106.9420
18.500000	71.441	-107.6595
18.750000	71.512	-108.3803
19.000000	71.579	-109.1047
19.250000	71.641	-109.8307
19.500000	71.700	-110.5537
19.750000	71.754	-111.2698
20.000000	71.805	-111.9710
20.299999	71.865	-112.7892
20.600000	71.924	-113.5830
20.900000	71.985	-114.3596
21.200001	72.049	-115.1314
21.400000	72.090	-115.6486
21.799999	72.173	-116.6871
22.000000	72.213	-117.2045
22.400000	72.289	-118.2214
22.700001	72.345	-118.9596
23.000000	72.400	-119.6764
23.299999	72.454	-120.3783
23.600000	72.507	-121.0686
24.000000	72.574	-121.9678
24.299999	72.621	-122.6167
24.700001	72.678	-123.4362
25.000000	72.721	-124.0191
25.400000	72.780	-124.7733
25.799999	72.839	-125.5304
26.200001	72.893	-126.3021
26.500000	72.928	-126.8806
26.900000	72.968	-127.6301
27.200001	72.994	-128.1653
27.600000	73.028	-128.8446
28.000000	73.063	-129.5061
28.500000	73.110	-130.3449
29.000000	73.154	-131.2070
29.500000	73.190	-132.0622
30.000000	73.222	-132.8727
30.400000	73.249	-133.4855
30.700001	73.271	-133.9343
31.100000	73.304	-134.5366
31.500000	73.336	-135.1537
32.000000	73.372	-135.9351
32.500000	73.399	-136.6895
33.000000	73.422	-137.3880
33.500000	73.444	-138.0400
34.000000	73.469	-138.6738
34.500000	73.493	-139.3015
35.000000	73.514	-139.9182
35.500000	73.534	-140.5224
36.000000	73.552	-141.1210
36.500000	73.567	-141.7146
37.000000	73.581	-142.2926
37.500000	73.595	-142.8496
38.200001	73.617	-143.6167
38.700001	73.634	-144.1759
39.500000	73.654	-145.0801
40.000000	73.663	-145.6234
40.599998	73.673	-146.2360
41.200001	73.684	-146.8161
41.799999	73.696	-147.3833
42.500000	73.710	-148.0377
43.099998	73.720	-148.5860
43.700001	73.730	-149.1242
44.400002	73.741	-149.7469
45.000000	73.749	-150.2739
45.500000	73.755	-150.7039
46.200001	73.763	-151.2935
46.799999	73.768	-151.7904
47.500000	73.774	-152.3563
48.200001	73.778	-152.8982
48.700001	73.782	-153.2691
49.400002	73.787	-153.7762
50.000000	73.792	-154.2126
50.799999	73.796	-154.7967
51.500000	73.797	-155.2918
52.200001	73.797	-155.7688
53.000000	73.798	-156.3085
53.799999	73.797	-156.8407
54.500000	73.797	-157.2846
55.200001	73.800	-157.7229
56.000000	73.804	-158.2432
57.000000	73.802	-158.8631
58.000000	73.803	-159.4293
59.000000	73.803	-160.0152
60.000000	73.797	-160.5601
60.799999	73.794	-160.9776
61.500000	73.791	-161.3474
62.200001	73.787	-161.7088
63.000000	73.783	-162.1174
64.000000	73.775	-162.6330
65.000000	73.765	-163.1295
66.000000	73.756	-163.6112
67.000000	73.748	-164.0849
68.000000	73.738	-164.5519
69.000000	73.727	-164.9873
70.000000	73.720	-165.4077
71.000000	73.710	-165.8422
72.000000	73.699	-166.2617
73.000000	73.690	-166.6763
74.000000	73.678	-167.0858
75.000000	73.666	-167.4830
76.199997	73.652	-167.9546
77.500000	73.635	-168.4335
78.800003	73.621	-168.8933
80.000000	73.608	-169.2916
81.199997	73.601	-169.6849
82.500000	73.586	-170.1787
83.800003	73.563	-170.6084
85.000000	73.548	-170.9924
86.199997	73.532	-171.3651
87.500000	73.523	-171.7851
88.500000	73.508	-172.1339
90.000000	73.483	-172.5630
91.199997	73.467	-172.8967
92.500000	73.450	-173.2618
93.800003	73.431	-173.6269
95.000000	73.415	-173.9498
96.199997	73.401	-174.2782
97.500000	73.384	-174.6191
98.800003	73.366	-174.9363
100.000000	73.351	-175.2188
101.500000	73.331	-175.5901
103.000000	73.308	-175.9537
104.400002	73.289	-176.2838
106.000000	73.267	-176.6590
107.500000	73.246	-176.9871
109.000000	73.226	-177.3056
110.599998	73.204	-177.6292
112.000000	73.185	-177.9101
113.800003	73.160	-178.2751
115.000000	73.144	-178.5133
117.199997	73.115	-178.9487
118.000000	73.104	-179.1035
120.599998	73.065	-179.5754
122.000000	73.046	-179.8215
124.099998	73.018	179.8095
125.000000	73.006	179.6535
126.500000	72.990	179.4079
128.000000	72.975	179.1609
131.500000	72.938	178.6274
132.000000	72.932	178.5553
134.000000	72.912	178.2585
136.000000	72.891	177.9667
138.000000	72.871	177.6841
140.000000	72.849	177.4142
143.000000	72.817	177.0142
145.000000	72.797	176.7519
147.500000	72.773	176.4417
150.000000	72.747	176.1424
152.500000	72.719	175.8543
155.000000	72.693	175.5764
157.500000	72.668	175.3116
160.000000	72.638	175.0606
162.500000	72.602	174.8160
165.000000	72.562	174.5690
167.500000	72.522	174.3270
170.000000	72.481	174.1057
172.500000	72.443	173.8954
175.000000	72.406	173.6819
177.500000	72.368	173.4741
180.000000	72.329	173.2717
182.500000	72.291	173.0809
185.000000	72.254	172.8977
187.500000	72.218	172.7230
190.000000	72.180	172.5521
192.500000	72.143	172.3875
195.000000	72.106	172.2236
197.500000	72.069	172.0745
200.000000	72.036	171.9271
203.000000	71.998	171.7617
206.000000	71.960	171.6027
209.000000	71.924	171.4455
212.000000	71.889	171.2906
214.000000	71.865	171.1957
218.000000	71.821	171.0184
220.000000	71.797	170.9258
224.000000	71.750	170.7527
227.000000	71.715	170.6334
230.000000	71.681	170.5248
233.000000	71.648	170.4187
236.000000	71.615	170.3209
240.000000	71.568	170.1943
243.000000	71.536	170.1055
247.000000	71.492	170.0014
250.000000	71.461	169.9333
254.000000	71.419	169.8197
258.000000	71.378	169.7198
262.000000	71.339	169.6301
265.000000	71.308	169.5795
269.000000	71.271	169.5199
272.000000	71.241	169.4715
276.000000	71.202	169.4106
280.000000	71.164	169.3605
285.000000	71.116	169.3099
290.000000	71.067	169.2470
295.000000	71.019	169.2064
300.000000	70.974	169.1874
304.000000	70.938	169.1755
307.000000	70.909	169.1658
311.000000	70.871	169.1441
315.000000	70.836	169.1332
320.000000	70.793	169.1343
325.000000	70.748	169.1440
330.000000	70.702	169.1611
335.000000	70.658	169.1885
340.000000	70.615	169.2225
345.000000	70.573	169.2592
350.000000	70.531	169.2973
355.000000	70.490	169.3293
360.000000	70.449	169.3779
365.000000	70.409	169.4328
370.000000	70.368	169.4907
375.000000	70.330	169.5543
382.000000	70.275	169.6456
387.000000	70.234	169.7266
395.000000	70.169	169.8579
400.000000	70.130	169.9416
406.000000	70.085	170.0678
412.000000	70.039	170.1953
418.000000	69.992	170.3239
425.000000	69.943	170.4860
431.000000	69.901	170.6191
437.000000	69.859	170.7539
444.000000	69.811	170.9234
450.000000	69.771	171.0842
455.000000	69.737	171.2192
462.000000	69.689	171.4209
468.000000	69.648	171.6060
475.000000	69.601	171.8319
482.000000	69.555	172.0452
487.000000	69.522	172.1993
494.000000	69.475	172.4353
500.000000	69.436	172.6591
508.000000	69.387	172.9584
515.000000	69.346	173.2261
522.000000	69.306	173.4938
530.000000	69.259	173.8115
538.000000	69.215	174.1427
545.000000	69.178	174.4458
552.000000	69.141	174.7623
560.000000	69.099	175.1203
570.000000	69.046	175.5963
580.000000	68.995	176.0989
590.000000	68.951	176.6238
600.000000	68.906	177.1540
608.000000	68.872	177.5879
615.000000	68.844	177.9799
622.000000	68.818	178.3821
630.000000	68.791	178.8649
640.000000	68.759	179.4708
650.000000	68.730	-179.9203
660.000000	68.706	-179.2987
670.000000	68.686	-178.6405
680.000000	68.672	-177.9778
690.000000	68.658	-177.3158
700.000000	68.650	-176.6477
710.000000	68.647	-175.9553
720.000000	68.647	-175.2498
730.000000	68.652	-174.5598
740.000000	68.664	-173.8943
750.000000	68.680	-173.2127
762.000000	68.708	-172.3929
775.000000	68.743	-171.5088
788.000000	68.788	-170.6651
800.000000	68.833	-169.9194
812.000000	68.878	-169.1940
825.000000	68.930	-168.4240
838.000000	68.986	-167.7010
850.000000	69.043	-167.0769
862.000000	69.106	-166.4931
875.000000	69.177	-165.9111
885.000000	69.232	-165.4987
900.000000	69.317	-164.9235
912.000000	69.388	-164.5026
925.000000	69.465	-164.0935
938.000000	69.543	-163.7368
950.000000	69.616	-163.4527
962.000000	69.687	-163.1949
975.000000	69.761	-162.9455
988.000000	69.832	-162.7316
1000.000000	69.899	-162.5708
1015.000000	69.992	-162.3993
1030.000000	70.087	-162.2980
1044.000000	70.172	-162.2304
1060.000000	70.264	-162.1877
1075.000000	70.345	-162.1719
1090.000000	70.420	-162.1774
1106.000000	70.496	-162.2303
1120.000000	70.560	-162.3019
1138.000000	70.638	-162.4285
1150.000000	70.684	-162.5283
1172.000000	70.758	-162.7263
1180.000000	70.781	-162.8026
1206.000000	70.846	-163.0529
1220.000000	70.875	-163.1990
1241.000000	70.909	-163.4267
1250.000000	70.916	-163.5190
1265.000000	70.911	-163.6604
1280.000000	70.896	-163.7885
1315.000000	70.845	-164.0673
1320.000000	70.835	-164.1005
1340.000000	70.794	-164.2102
1360.000000	70.744	-164.2644
1380.000000	70.691	-164.2850
1400.000000	70.636	-164.2693
1430.000000	70.545	-164.1709
1450.000000	70.481	-164.0269
1475.000000	70.397	-163.7675
1500.000000	70.313	-163.4315
1525.000000	70.230	-163.0115
1550.000000	70.149	-162.5004
1575.000000	70.074	-161.9217
1600.000000	70.014	-161.2729
1625.000000	69.981	-160.5493
1650.000000	69.961	-159.7534
1675.000000	69.949	-158.8985
1700.000000	69.948	-158.0007
1725.000000	69.957	-157.0735
1750.000000	69.978	-156.1061
1775.000000	70.010	-155.1028
1800.000000	70.056	-154.0963
1825.000000	70.115	-153.0994
1850.000000	70.184	-152.0944
1875.000000	70.263	-151.0963
1900.000000	70.353	-150.1057
1925.000000	70.455	-149.1545
1950.000000	70.570	-148.2361
1975.000000	70.694	-147.3594
2000.000000	70.827	-146.5390
2030.000000	70.992	-145.6166
2060.000000	71.167	-144.7735
2090.000000	71.353	-144.0282
2120.000000	71.549	-143.3993
2140.000000	71.684	-143.0479
2180.000000	71.965	-142.4921
2200.000000	72.108	-142.2987
2240.000000	72.397	-142.1003
2270.000000	72.614	-142.1075
2300.000000	72.829	-142.2548
2330.000000	73.038	-142.5412
2360.000000	73.242	-142.9680
2400.000000	73.497	-143.7537
2430.000000	73.676	-144.4899
2470.000000	73.891	-145.6481
2500.000000	74.036	-146.6398
2540.000000	74.200	-148.0830
2580.000000	74.327	-149.6297
2620.000000	74.419	-151.2304
2650.000000	74.468	-152.4421
2690.000000	74.506	-154.0499
2720.000000	74.515	-155.2088
2760.000000	74.505	-156.6765
2800.000000	74.471	-158.0235
2850.000000	74.400	-159.5107
2900.000000	74.310	-160.7395
2950.000000	74.209	-161.7148
3000.000000	74.102	-162.4308
3040.000000	74.019	-162.8265
3070.000000	73.960	-163.0369
3110.000000	73.889	-163.2058
3150.000000	73.827	-163.2540
3200.000000	73.764	-163.1734
3250.000000	73.721	-162.9778
3300.000000	73.701	-162.6961
3350.000000	73.705	-162.3506
3400.000000	73.737	-161.9861
3450.000000	73.795	-161.6316
3500.000000	73.878	-161.3237
3550.000000	73.986	-161.0842
3600.000000	74.117	-160.9624
3650.000000	74.271	-160.9893
3700.000000	74.444	-161.1900
3750.000000	74.639	-161.6358
3820.000000	74.930	-162.7668
3870.000000	75.136	-163.9871
3950.000000	75.433	-166.7187
4000.000000	75.580	-168.9279
4060.000000	75.690	-172.0192
4120.000000	75.712	-175.4570
4180.000000	75.634	-179.0549
4250.000000	75.416	176.8817
4310.000000	75.127	173.7982
4370.000000	74.764	171.2912
4440.000000	74.289	169.2247
4500.000000	73.868	168.2302
4550.000000	73.531	167.9097
4620.000000	73.110	168.1140
4680.000000	72.812	168.7500
4750.000000	72.558	169.7820
4820.000000	72.418	170.8458
4870.000000	72.387	171.4378
4940.000000	72.422	171.7775
5000.000000	72.491	171.3943
5080.000000	72.560	169.6638
5150.000000	72.521	167.0033
5220.000000	72.313	163.6268
5300.000000	71.807	159.7630
5380.000000	71.033	156.9306
5450.000000	70.213	155.8624
5520.000000	69.343	156.2185
5600.000000	68.383	158.1956
5700.000000	67.336	162.5059
5800.000000	66.511	168.1297
5900.000000	65.924	174.4718
6000.000000	65.565	-178.9332
6080.000000	65.427	-173.7296
6150.000000	65.395	-169.3990
6220.000000	65.409	-165.2990
6300.000000	65.492	-160.4485
6400.000000	65.848	-154.4093
6500.000000	66.384	-149.0969
6600.000000	67.032	-144.5511
6700.000000	67.788	-140.7783
6800.000000	68.640	-137.8865
6900.000000	69.571	-136.0470
7000.000000	70.557	-135.4768
7100.000000	71.554	-136.3930
7200.000000	72.505	-138.9626
7300.000000	73.327	-143.2244
7400.000000	73.926	-148.8488
7500.000000	74.249	-155.0903
7620.000000	74.296	-162.1699
7750.000000	74.070	-168.2168
7880.000000	73.740	-172.3010
8000.000000	73.443	-174.7101
8120.000000	73.155	-176.3870
8250.000000	72.941	-177.9881
8380.000000	72.838	-179.9292
8500.000000	72.793	177.5757
8620.000000	72.735	174.1906
8750.000000	72.567	169.5728
8850.000000	72.312	165.6299
9000.000000	71.681	159.8890
9120.000000	70.979	156.2397
9250.000000	70.120	153.8140
9380.000000	69.284	152.7621
9500.000000	68.551	152.6054
9620.000000	67.864	153.2325
9750.000000	67.211	154.6940
9880.000000	66.684	156.7177
10000.000000	66.333	158.8745
10150.000000	66.111	161.6617
10300.000000	66.091	164.2475
10440.000000	66.228	166.1454
10600.000000	66.546	167.3111
10750.000000	66.954	167.0406
10900.000000	67.388	165.1343
11060.000000	67.748	161.1039
11200.000000	67.861	156.2471
11380.000000	67.633	149.4157
11500.000000	67.263	145.2794
11720.000000	66.311	139.6262
11800.000000	65.926	138.2207
12060.000000	64.722	135.2806
12200.000000	64.135	134.1056
12410.000000	63.286	132.0595
12500.000000	62.899	130.9606
12650.000000	62.155	128.8898
12800.000000	61.262	126.7646
13150.000000	58.585	124.3221
13200.000000	58.155	124.4774
13400.000000	56.400	126.5454
13600.000000	54.695	130.6797
13800.000000	53.124	136.5036
14000.000000	51.739	143.3272
14300.000000	49.989	154.3118
14500.000000	48.915	161.3203
14750.000000	47.234	171.0262
15000.000000	45.216	-169.3809
15250.000000	46.180	-140.8306
15500.000000	49.082	-131.7571
15750.000000	50.152	-137.5422
16000.000000	49.529	-140.5575
16250.000000	48.387	-133.9362
16500.000000	49.396	-111.8702
16750.000000	52.528	-109.6960
17000.000000	53.412	-114.4412
17250.000000	54.120	-115.5042
17500.000000	54.841	-117.7935
17750.000000	55.246	-121.7179
18000.000000	55.217	-125.6018
18250.000000	54.904	-127.7532
18500.000000	54.551	-128.2456
18750.000000	54.314	-128.1940
19000.000000	54.173	-129.0612
19250.000000	53.955	-131.9355
19500.000000	53.396	-136.5715
19750.000000	52.372	-141.2849
