* Measurement data measured by REW V5.20.13
* Source: C:\Users\marcu\OneDrive\Desktop\Fix\Raptgo Bridge s.11 f.S Stock White R.txt
* Format: Comma/Tab/Space delimited data
* Dated: Jul 17, 2023 7:08:32 PM
* REW Settings:
*  C-weighting compensation: Off
*  Target level: 75.0 dB
* Note: ; Measurement imported from C:\Users\marcu\OneDrive\Desktop\Fix\Raptgo Bridge s.11 f.S Stock White R.txt Format: Comma/Tab/Space delimited data 54613 values loaded, 0 Hz to 20,000 Hz
* Measurement: s.11 f.S Stock White R
* Smoothing: None
* Frequency Step: 1/48 octave
* Start Frequency: 1.000 Hz
*
* Freq(Hz)	SPL(dB)	Phase(degrees)
1.000000	82.557	-62.4309
1.015000	82.376	-63.3144
1.030000	82.188	-64.1890
1.044000	82.006	-64.9968
1.060000	81.788	-65.9092
1.075000	81.575	-66.7534
1.090000	81.353	-67.5860
1.106000	81.106	-68.4869
1.120000	80.881	-69.4269
1.138000	80.581	-70.8522
1.150000	80.374	-71.9171
1.172000	79.982	-74.0565
1.180000	79.836	-74.8813
1.206000	79.345	-77.6691
1.220000	79.073	-79.2029
1.241000	78.654	-81.4874
1.250000	78.470	-82.4449
1.265000	78.160	-83.9907
1.280000	77.844	-85.4509
1.315000	77.087	-88.3756
1.320000	76.977	-88.7238
1.340000	76.530	-89.9032
1.360000	76.077	-90.6937
1.380000	75.617	-91.0323
1.400000	75.152	-90.8558
1.430000	74.444	-89.4872
1.450000	73.967	-87.7469
1.475000	73.357	-84.4875
1.500000	72.655	-79.6565
1.525000	71.863	-73.3806
1.550000	71.003	-65.8967
1.575000	70.098	-57.4416
1.600000	69.171	-48.2524
1.625000	68.245	-38.5660
1.650000	67.343	-28.6192
1.675000	66.487	-18.6491
1.700000	65.700	-8.8924
1.725000	65.005	0.4137
1.750000	64.425	9.0324
1.775000	63.982	16.7267
1.800000	63.700	23.2598
1.825000	63.601	28.3947
1.850000	63.712	32.1241
1.875000	64.041	34.9258
1.900000	64.560	36.9103
1.925000	65.241	38.1678
1.950000	66.053	38.7882
1.975000	66.970	38.8617
2.000000	67.961	38.4785
2.030000	69.210	37.5425
2.060000	70.475	36.2342
2.090000	71.708	34.7093
2.120000	72.858	33.1235
2.140000	73.555	32.1093
2.180000	74.715	30.3920
2.200000	75.148	29.7778
2.240000	75.839	28.4447
2.270000	76.258	27.1760
2.300000	76.602	25.7141
2.330000	76.882	24.0928
2.360000	77.109	22.3458
2.400000	77.343	19.8789
2.430000	77.482	17.9692
2.470000	77.636	15.4078
2.500000	77.742	13.5190
2.540000	77.888	11.1074
2.580000	78.054	8.8659
2.620000	78.194	6.6323
2.650000	78.274	4.9399
2.690000	78.351	2.6720
2.720000	78.389	0.9704
2.760000	78.417	-1.2875
2.800000	78.422	-3.5199
2.850000	78.402	-6.2524
2.900000	78.361	-8.8941
2.950000	78.304	-11.4309
3.000000	78.214	-13.9563
3.040000	78.117	-15.9622
3.070000	78.032	-17.4440
3.110000	77.904	-19.3719
3.150000	77.762	-21.2255
3.200000	77.570	-23.4046
3.250000	77.366	-25.3909
3.300000	77.154	-27.1426
3.350000	76.916	-28.7224
3.400000	76.644	-30.1736
3.450000	76.351	-31.4653
3.500000	76.053	-32.5667
3.550000	75.764	-33.4471
3.600000	75.498	-34.0758
3.650000	75.268	-34.4220
3.700000	75.072	-34.4100
3.750000	74.878	-33.9743
3.820000	74.630	-32.8507
3.870000	74.485	-31.8298
3.950000	74.341	-30.1212
4.000000	74.324	-29.1769
4.060000	74.398	-28.2605
4.120000	74.579	-27.2522
4.180000	74.843	-26.2095
4.250000	75.221	-25.1207
4.310000	75.576	-24.4438
4.370000	75.933	-24.1390
4.440000	76.342	-24.3813
4.500000	76.730	-25.0246
4.550000	77.071	-25.8038
4.620000	77.557	-27.1732
4.680000	77.962	-28.5199
4.750000	78.399	-30.1815
4.820000	78.792	-31.9692
4.870000	79.061	-33.4179
4.940000	79.418	-35.6065
5.000000	79.705	-37.5570
5.080000	80.059	-40.1398
5.150000	80.339	-42.2820
5.220000	80.587	-44.4306
5.300000	80.837	-46.8964
5.380000	81.059	-49.2903
5.450000	81.234	-51.2575
5.520000	81.395	-53.0553
5.600000	81.549	-54.9722
5.700000	81.709	-57.1627
5.800000	81.852	-59.0753
5.900000	81.996	-60.6549
6.000000	82.125	-61.8775
6.080000	82.224	-62.6487
6.150000	82.318	-63.2113
6.220000	82.425	-63.7009
6.300000	82.564	-64.1305
6.400000	82.754	-64.4375
6.500000	82.964	-64.6389
6.600000	83.193	-64.8951
6.700000	83.450	-65.1820
6.800000	83.728	-65.4651
6.900000	84.013	-65.8218
7.000000	84.292	-66.3233
7.100000	84.575	-66.9575
7.200000	84.856	-67.6867
7.300000	85.122	-68.4792
7.400000	85.366	-69.3342
7.500000	85.595	-70.2777
7.620000	85.848	-71.4415
7.750000	86.091	-72.6430
7.880000	86.299	-73.8295
8.000000	86.470	-74.8641
8.120000	86.628	-75.7815
8.250000	86.777	-76.6624
8.380000	86.917	-77.4439
8.500000	87.048	-78.0754
8.620000	87.174	-78.6086
8.750000	87.313	-79.1403
8.850000	87.424	-79.5492
9.000000	87.597	-80.1232
9.120000	87.737	-80.5987
9.250000	87.889	-81.1723
9.380000	88.041	-81.7851
9.500000	88.178	-82.3892
9.620000	88.306	-83.0392
9.750000	88.440	-83.7904
9.880000	88.565	-84.5597
10.000000	88.670	-85.2798
10.150000	88.791	-86.1969
10.300000	88.904	-87.0945
10.440000	89.000	-87.9130
10.600000	89.105	-88.8289
10.750000	89.201	-89.6618
10.900000	89.293	-90.4764
11.060000	89.393	-91.3462
11.200000	89.481	-92.1049
11.380000	89.593	-93.0926
11.500000	89.667	-93.7643
11.720000	89.799	-95.0104
11.800000	89.845	-95.4675
12.060000	89.993	-96.9609
12.200000	90.070	-97.7539
12.410000	90.182	-98.9289
12.500000	90.230	-99.4230
12.650000	90.310	-100.2334
12.800000	90.391	-101.0330
13.150000	90.582	-102.8671
13.200000	90.609	-103.1279
13.400000	90.719	-104.1700
13.600000	90.827	-105.2050
13.800000	90.931	-106.2341
14.000000	91.031	-107.2367
14.300000	91.173	-108.6794
14.500000	91.264	-109.5826
14.750000	91.376	-110.6518
15.000000	91.487	-111.6605
15.250000	91.600	-112.6351
15.500000	91.710	-113.5939
15.750000	91.816	-114.5443
16.000000	91.915	-115.4865
16.250000	92.005	-116.4036
16.500000	92.086	-117.2872
16.750000	92.162	-118.1262
17.000000	92.232	-118.9275
17.250000	92.299	-119.7011
17.500000	92.365	-120.4612
17.750000	92.428	-121.2225
18.000000	92.487	-121.9868
18.250000	92.542	-122.7551
18.500000	92.591	-123.5191
18.750000	92.636	-124.2763
19.000000	92.679	-125.0242
19.250000	92.720	-125.7669
19.500000	92.759	-126.5090
19.750000	92.798	-127.2535
20.000000	92.835	-128.0015
20.299999	92.878	-128.8968
20.600000	92.919	-129.7827
20.900000	92.960	-130.6525
21.200001	93.000	-131.5054
21.400000	93.028	-132.0670
21.799999	93.084	-133.1765
22.000000	93.112	-133.7240
22.400000	93.167	-134.7979
22.700001	93.206	-135.5770
23.000000	93.245	-136.3294
23.299999	93.283	-137.0583
23.600000	93.322	-137.7679
24.000000	93.370	-138.6886
24.299999	93.403	-139.3589
24.700001	93.443	-140.2208
25.000000	93.471	-140.8426
25.400000	93.504	-141.6447
25.799999	93.535	-142.4268
26.200001	93.562	-143.1950
26.500000	93.580	-143.7622
26.900000	93.601	-144.5085
27.200001	93.616	-145.0660
27.600000	93.634	-145.8151
28.000000	93.650	-146.5733
28.500000	93.664	-147.5158
29.000000	93.674	-148.4245
29.500000	93.686	-149.2981
30.000000	93.702	-150.1598
30.400000	93.715	-150.8476
30.700001	93.724	-151.3591
31.100000	93.736	-152.0279
31.500000	93.748	-152.6783
32.000000	93.760	-153.4643
32.500000	93.772	-154.2177
33.000000	93.783	-154.9372
33.500000	93.792	-155.6343
34.000000	93.801	-156.3222
34.500000	93.807	-156.9969
35.000000	93.809	-157.6490
35.500000	93.811	-158.2898
36.000000	93.812	-158.9410
36.500000	93.810	-159.5964
37.000000	93.803	-160.2263
37.500000	93.798	-160.8250
38.200001	93.798	-161.6784
38.700001	93.796	-162.3227
39.500000	93.779	-163.3178
40.000000	93.768	-163.8863
40.599998	93.757	-164.5461
41.200001	93.745	-165.1895
41.799999	93.733	-165.7908
42.500000	93.727	-166.4773
43.099998	93.721	-167.1144
43.700001	93.704	-167.7476
44.400002	93.680	-168.3768
45.000000	93.671	-168.8582
45.500000	93.670	-169.2948
46.200001	93.664	-169.9653
46.799999	93.651	-170.5198
47.500000	93.634	-171.1107
48.200001	93.620	-171.6835
48.700001	93.608	-172.0872
49.400002	93.592	-172.6448
50.000000	93.576	-173.1285
50.799999	93.550	-173.7599
51.500000	93.525	-174.2793
52.200001	93.504	-174.7990
53.000000	93.477	-175.3920
53.799999	93.451	-175.9556
54.500000	93.430	-176.4375
55.200001	93.411	-176.9023
56.000000	93.392	-177.4318
57.000000	93.360	-178.1052
58.000000	93.328	-178.6735
59.000000	93.305	-179.3289
60.000000	93.252	-179.9903
60.799999	93.215	179.6118
61.500000	93.193	179.2115
62.200001	93.160	178.7537
63.000000	93.110	178.3342
64.000000	93.072	177.9721
65.000000	93.064	177.4848
66.000000	93.042	176.8121
67.000000	92.993	176.2143
68.000000	92.948	175.7681
69.000000	92.913	175.2995
70.000000	92.873	174.8457
71.000000	92.838	174.4197
72.000000	92.802	173.9502
73.000000	92.760	173.5233
74.000000	92.724	173.1176
75.000000	92.685	172.6844
76.199997	92.637	172.2341
77.500000	92.597	171.7270
78.800003	92.541	171.1888
80.000000	92.492	170.8214
81.199997	92.451	170.3906
82.500000	92.397	169.9430
83.800003	92.343	169.5356
85.000000	92.296	169.1392
86.199997	92.246	168.8088
87.500000	92.205	168.4081
88.500000	92.162	168.0869
90.000000	92.101	167.6963
91.199997	92.054	167.3582
92.500000	92.000	167.0182
93.800003	91.950	166.6838
95.000000	91.904	166.3860
96.199997	91.865	166.0533
97.500000	91.804	165.6960
98.800003	91.754	165.4745
100.000000	91.713	165.2113
101.500000	91.660	164.8924
103.000000	91.600	164.5817
104.400002	91.548	164.3201
106.000000	91.491	164.0004
107.500000	91.433	163.7269
109.000000	91.376	163.4455
110.599998	91.315	163.1908
112.000000	91.263	162.9697
113.800003	91.195	162.6817
115.000000	91.156	162.4962
117.199997	91.076	162.1727
118.000000	91.050	162.0320
120.599998	90.955	161.7338
122.000000	90.902	161.5674
124.099998	90.827	161.3139
125.000000	90.795	161.2260
126.500000	90.749	161.0382
128.000000	90.692	160.8775
131.500000	90.582	160.5274
132.000000	90.564	160.4760
134.000000	90.493	160.3231
136.000000	90.429	160.1803
138.000000	90.359	159.9999
140.000000	90.295	159.8808
143.000000	90.198	159.6750
145.000000	90.132	159.5543
147.500000	90.057	159.3964
150.000000	89.978	159.2741
152.500000	89.902	159.1694
155.000000	89.826	159.0584
157.500000	89.748	158.9531
160.000000	89.679	158.8867
162.500000	89.610	158.8036
165.000000	89.535	158.7369
167.500000	89.463	158.7277
170.000000	89.393	158.6740
172.500000	89.322	158.6298
175.000000	89.250	158.6161
177.500000	89.189	158.6100
180.000000	89.122	158.6269
182.500000	89.054	158.5983
185.000000	88.992	158.6234
187.500000	88.929	158.6266
190.000000	88.868	158.6280
192.500000	88.808	158.6765
195.000000	88.747	158.7224
197.500000	88.684	158.7580
200.000000	88.628	158.7928
203.000000	88.557	158.8914
206.000000	88.487	158.9528
209.000000	88.422	159.0375
212.000000	88.353	159.1185
214.000000	88.312	159.1967
218.000000	88.223	159.2873
220.000000	88.184	159.3774
224.000000	88.105	159.5180
227.000000	88.042	159.6491
230.000000	87.975	159.7848
233.000000	87.923	159.9042
236.000000	87.867	160.0197
240.000000	87.789	160.2176
243.000000	87.732	160.3782
247.000000	87.662	160.5468
250.000000	87.604	160.7067
254.000000	87.535	160.9248
258.000000	87.465	161.1324
262.000000	87.405	161.3475
265.000000	87.353	161.5039
269.000000	87.289	161.7276
272.000000	87.240	161.9374
276.000000	87.179	162.2002
280.000000	87.121	162.3507
285.000000	87.050	162.6904
290.000000	86.976	163.0045
295.000000	86.912	163.3458
300.000000	86.841	163.6081
304.000000	86.788	163.9203
307.000000	86.752	164.0997
311.000000	86.694	164.3737
315.000000	86.648	164.6510
320.000000	86.588	164.9842
325.000000	86.524	165.4127
330.000000	86.472	165.6643
335.000000	86.421	166.0266
340.000000	86.365	166.4192
345.000000	86.317	166.7765
350.000000	86.265	167.1435
355.000000	86.213	167.4371
360.000000	86.159	167.8204
365.000000	86.120	168.1617
370.000000	86.074	168.5536
375.000000	86.034	168.9273
382.000000	85.966	169.4470
387.000000	85.924	169.8370
395.000000	85.866	170.3693
400.000000	85.821	170.7319
406.000000	85.781	171.1924
412.000000	85.745	171.6523
418.000000	85.691	172.1073
425.000000	85.653	172.5944
431.000000	85.608	173.0829
437.000000	85.575	173.5623
444.000000	85.532	174.0323
450.000000	85.507	174.4438
455.000000	85.479	174.8689
462.000000	85.443	175.3760
468.000000	85.408	175.8239
475.000000	85.375	176.3384
482.000000	85.341	176.8953
487.000000	85.312	177.2501
494.000000	85.287	177.7482
500.000000	85.263	178.2001
508.000000	85.234	178.8225
515.000000	85.210	179.3456
522.000000	85.176	179.8467
530.000000	85.156	-179.5786
538.000000	85.135	-178.9862
545.000000	85.104	-178.4484
552.000000	85.084	-177.9672
560.000000	85.057	-177.3390
570.000000	85.029	-176.6096
580.000000	85.016	-175.8992
590.000000	84.996	-175.2042
600.000000	84.973	-174.4533
608.000000	84.950	-173.9213
615.000000	84.926	-173.3759
622.000000	84.925	-172.9045
630.000000	84.892	-172.3759
640.000000	84.852	-171.5716
650.000000	84.806	-170.6888
660.000000	84.796	-169.5564
670.000000	84.800	-168.5087
680.000000	84.830	-167.5843
690.000000	84.857	-166.7005
700.000000	84.879	-165.9385
710.000000	84.901	-165.1556
720.000000	84.924	-164.3903
730.000000	84.951	-163.6859
740.000000	84.967	-162.9037
750.000000	85.001	-162.1085
762.000000	85.028	-161.2264
775.000000	85.066	-160.2091
788.000000	85.120	-159.2528
800.000000	85.157	-158.3407
812.000000	85.210	-157.3589
825.000000	85.270	-156.4316
838.000000	85.335	-155.4573
850.000000	85.406	-154.5225
862.000000	85.488	-153.6816
875.000000	85.576	-152.9099
885.000000	85.622	-152.2529
900.000000	85.722	-151.2256
912.000000	85.804	-150.4938
925.000000	85.897	-149.5890
938.000000	86.021	-148.7836
950.000000	86.113	-148.1330
962.000000	86.224	-147.4028
975.000000	86.332	-146.8032
988.000000	86.459	-146.2185
1000.000000	86.601	-145.8550
1015.000000	86.729	-145.4056
1030.000000	86.880	-145.2351
1044.000000	86.914	-145.6812
1060.000000	86.775	-144.6259
1075.000000	86.916	-142.6292
1090.000000	87.147	-141.7232
1106.000000	87.354	-141.1233
1120.000000	87.517	-140.8266
1138.000000	87.701	-140.4063
1150.000000	87.820	-140.2080
1172.000000	88.025	-139.8101
1180.000000	88.101	-139.7751
1206.000000	88.333	-139.4047
1220.000000	88.451	-139.2343
1241.000000	88.629	-139.0816
1250.000000	88.701	-139.0756
1265.000000	88.821	-138.9498
1280.000000	88.936	-138.8904
1315.000000	89.195	-138.7672
1320.000000	89.238	-138.7556
1340.000000	89.381	-138.7083
1360.000000	89.522	-138.6839
1380.000000	89.662	-138.6711
1400.000000	89.800	-138.6541
1430.000000	90.003	-138.7069
1450.000000	90.140	-138.7538
1475.000000	90.305	-138.8335
1500.000000	90.480	-138.9512
1525.000000	90.636	-139.0941
1550.000000	90.803	-139.3047
1575.000000	90.962	-139.5144
1600.000000	91.124	-139.7992
1625.000000	91.279	-140.0562
1650.000000	91.434	-140.4333
1675.000000	91.588	-140.8197
1700.000000	91.744	-141.2636
1725.000000	91.889	-141.7764
1750.000000	92.036	-142.3257
1775.000000	92.179	-142.9060
1800.000000	92.312	-143.5694
1825.000000	92.438	-144.2957
1850.000000	92.563	-145.0511
1875.000000	92.676	-145.8664
1900.000000	92.783	-146.6963
1925.000000	92.883	-147.6023
1950.000000	92.972	-148.5182
1975.000000	93.048	-149.5043
2000.000000	93.126	-150.5117
2030.000000	93.190	-151.6393
2060.000000	93.242	-152.8280
2090.000000	93.287	-154.0519
2120.000000	93.313	-155.2288
2140.000000	93.326	-156.0306
2180.000000	93.330	-157.5416
2200.000000	93.326	-158.3195
2240.000000	93.303	-159.7693
2270.000000	93.266	-160.8181
2300.000000	93.221	-161.7956
2330.000000	93.176	-162.7570
2360.000000	93.115	-163.6079
2400.000000	93.026	-164.6235
2430.000000	92.955	-165.3990
2470.000000	92.858	-166.2504
2500.000000	92.784	-166.8741
2540.000000	92.674	-167.5841
2580.000000	92.570	-168.1885
2620.000000	92.456	-168.7410
2650.000000	92.365	-169.0882
2690.000000	92.260	-169.4469
2720.000000	92.171	-169.6859
2760.000000	92.065	-169.9355
2800.000000	91.950	-170.1333
2850.000000	91.813	-170.2809
2900.000000	91.675	-170.3361
2950.000000	91.539	-170.2920
3000.000000	91.407	-170.0812
3040.000000	91.313	-169.8310
3070.000000	91.242	-169.6679
3110.000000	91.156	-169.3671
3150.000000	91.076	-168.9512
3200.000000	90.978	-168.3891
3250.000000	90.892	-167.7184
3300.000000	90.821	-167.0107
3350.000000	90.771	-166.1820
3400.000000	90.732	-165.3642
3450.000000	90.705	-164.5142
3500.000000	90.699	-163.6315
3550.000000	90.703	-162.7362
3600.000000	90.734	-161.7215
3650.000000	90.773	-160.7774
3700.000000	90.826	-159.8398
3750.000000	90.914	-158.9791
3820.000000	91.038	-157.6830
3870.000000	91.159	-156.8882
3950.000000	91.393	-155.6119
4000.000000	91.575	-154.9857
4060.000000	91.785	-154.2039
4120.000000	92.049	-153.7363
4180.000000	92.324	-153.4140
4250.000000	92.674	-153.5080
4310.000000	93.000	-153.9242
4370.000000	93.324	-154.8219
4440.000000	93.687	-156.5680
4500.000000	93.928	-158.5975
4550.000000	94.072	-160.6089
4620.000000	94.149	-163.5027
4680.000000	94.122	-165.5997
4750.000000	94.044	-167.3936
4820.000000	93.992	-168.7186
4870.000000	93.982	-169.4752
4940.000000	94.012	-170.6922
5000.000000	94.033	-172.0865
5080.000000	94.062	-174.2720
5150.000000	94.025	-176.4364
5220.000000	93.917	-178.7133
5300.000000	93.714	178.7635
5380.000000	93.415	176.4456
5450.000000	93.100	174.9237
5520.000000	92.730	173.8223
5600.000000	92.279	173.3318
5700.000000	91.790	174.4838
5800.000000	91.533	174.5986
5900.000000	91.067	174.8055
6000.000000	90.638	176.0941
6080.000000	90.330	177.5131
6150.000000	90.094	179.0322
6220.000000	89.884	-179.3973
6300.000000	89.678	-177.3403
6400.000000	89.488	-174.6617
6500.000000	89.351	-171.8443
6600.000000	89.268	-168.9645
6700.000000	89.253	-165.9391
6800.000000	89.300	-162.7693
6900.000000	89.422	-159.5665
7000.000000	89.635	-156.4553
7100.000000	89.932	-153.4968
7200.000000	90.324	-150.7303
7300.000000	90.788	-148.4386
7400.000000	91.349	-146.5006
7500.000000	92.008	-145.2033
7620.000000	92.913	-144.6478
7750.000000	94.018	-146.0272
7880.000000	95.199	-150.2828
8000.000000	96.193	-157.8594
8120.000000	96.779	-168.7489
8250.000000	96.685	177.4789
8380.000000	95.858	165.6770
8500.000000	94.740	158.5084
8620.000000	93.566	154.7102
8750.000000	92.375	153.2679
8850.000000	91.559	153.4317
9000.000000	90.545	155.0447
9120.000000	89.898	157.0570
9250.000000	89.351	159.5945
9380.000000	88.993	162.4636
9500.000000	88.804	165.0349
9620.000000	88.776	167.3268
9750.000000	88.886	169.3010
9880.000000	89.133	170.2529
10000.000000	89.423	170.0412
10150.000000	89.760	167.9193
10300.000000	89.983	164.6369
10440.000000	90.047	160.6299
10600.000000	89.942	155.3223
10750.000000	89.610	150.1680
10900.000000	89.107	145.6967
11060.000000	88.405	141.5674
11200.000000	87.802	139.0568
11380.000000	86.930	136.1652
11500.000000	86.339	134.9044
11720.000000	85.397	132.9459
11800.000000	85.100	132.2416
12060.000000	84.159	128.6798
12200.000000	83.581	125.9031
12410.000000	82.505	120.3028
12500.000000	81.889	117.3729
12650.000000	80.664	112.6815
12800.000000	79.058	109.1251
13150.000000	74.755	107.4986
13200.000000	73.976	107.3854
13400.000000	71.386	112.0150
13600.000000	68.691	120.0874
13800.000000	66.119	130.8069
14000.000000	64.115	144.4297
14300.000000	62.259	168.3287
14500.000000	61.311	-176.4929
14750.000000	60.435	-160.3596
15000.000000	59.462	-140.7711
15250.000000	59.731	-123.4710
15500.000000	60.130	-109.3358
15750.000000	60.660	-93.4818
16000.000000	61.344	-84.5949
16250.000000	62.674	-71.4793
16500.000000	63.240	-61.8742
16750.000000	63.954	-53.3092
17000.000000	64.823	-41.2141
17250.000000	66.014	-27.0884
17500.000000	69.134	-25.7397
17750.000000	70.799	-26.6964
18000.000000	72.199	-27.3202
18250.000000	73.544	-32.2145
18500.000000	74.590	-38.1741
18750.000000	75.138	-46.8805
19000.000000	75.155	-54.3248
19250.000000	75.226	-60.3573
19500.000000	75.203	-71.2837
19750.000000	74.276	-85.7195
