* Measurement data measured by REW V5.20.13
* Source: EXCL: Microphone (USB Sound Device        ), MICROPHONE (Master Volume), L, volume: 0.250
* Format: 256k Log Swept Sine, 1 sweep at -6.0 dBFS with no timing reference
* Dated: Oct 11, 2023 9:26:13 AM
* REW Settings:
*  C-weighting compensation: Off
*  Target level: 75.0 dB
* Note: ; 
* Measurement: HBB Hook X Foam L
* Smoothing: None
* Frequency Step: 1/48 octave
* Start Frequency: 1.000 Hz
*
* Freq(Hz)	SPL(dB)	Phase(degrees)
1.000000	60.515	-167.3408
1.015000	60.585	-168.4196
1.030000	60.653	-169.4952
1.044000	60.714	-170.4958
1.060000	60.783	-171.6352
1.075000	60.847	-172.6990
1.090000	60.910	-173.7581
1.106000	60.975	-174.8829
1.120000	61.030	-175.8669
1.138000	61.097	-177.1323
1.150000	61.139	-177.9758
1.172000	61.211	-179.5211
1.180000	61.236	179.9175
1.206000	61.310	178.0958
1.220000	61.347	177.1172
1.241000	61.397	175.6531
1.250000	61.417	175.0273
1.265000	61.449	173.9868
1.280000	61.477	172.9498
1.315000	61.535	170.5455
1.320000	61.542	170.2041
1.340000	61.568	168.8438
1.360000	61.590	167.4929
1.380000	61.608	166.1525
1.400000	61.622	164.8235
1.430000	61.637	162.8532
1.450000	61.643	161.5565
1.475000	61.645	159.9537
1.500000	61.641	158.3528
1.525000	61.632	156.7525
1.550000	61.616	155.1570
1.575000	61.593	153.5706
1.600000	61.565	151.9973
1.625000	61.530	150.4412
1.650000	61.490	148.9065
1.675000	61.442	147.3973
1.700000	61.389	145.9179
1.725000	61.329	144.4722
1.750000	61.263	143.0645
1.775000	61.190	141.6989
1.800000	61.111	140.3794
1.825000	61.025	139.1103
1.850000	60.932	137.8749
1.875000	60.830	136.6314
1.900000	60.720	135.3886
1.925000	60.602	134.1577
1.950000	60.477	132.9496
1.975000	60.346	131.7753
2.000000	60.209	130.6461
2.030000	60.037	129.3659
2.060000	59.859	128.1855
2.090000	59.676	127.1240
2.120000	59.489	126.2004
2.140000	59.363	125.6708
2.180000	59.107	124.8436
2.200000	58.978	124.5571
2.240000	58.690	124.1875
2.270000	58.445	124.0669
2.300000	58.183	124.0782
2.330000	57.912	124.2195
2.360000	57.639	124.4886
2.400000	57.284	125.0425
2.430000	57.034	125.6018
2.470000	56.737	126.5351
2.500000	56.550	127.3731
2.540000	56.363	128.6707
2.580000	56.258	130.2072
2.620000	56.214	132.2577
2.650000	56.214	134.1005
2.690000	56.256	136.8470
2.720000	56.315	139.0443
2.760000	56.431	142.0404
2.800000	56.584	144.9787
2.850000	56.822	148.3484
2.900000	57.105	151.1156
2.950000	57.433	153.0468
3.000000	57.855	154.4266
3.040000	58.252	155.2311
3.070000	58.575	155.6766
3.110000	59.027	156.0801
3.150000	59.491	156.2891
3.200000	60.066	156.3156
3.250000	60.609	156.1270
3.300000	61.090	155.7718
3.350000	61.530	155.1255
3.400000	61.955	154.1313
3.450000	62.362	152.8680
3.500000	62.750	151.4144
3.550000	63.118	149.8492
3.600000	63.465	148.2512
3.650000	63.788	146.6992
3.700000	64.087	145.1907
3.750000	64.360	143.5876
3.820000	64.703	141.2321
3.870000	64.925	139.5139
3.950000	65.245	136.7917
4.000000	65.427	135.1573
4.060000	65.628	133.2937
4.120000	65.802	131.4502
4.180000	65.950	129.6359
4.250000	66.099	127.5925
4.310000	66.211	125.9348
4.370000	66.315	124.3926
4.440000	66.424	122.7563
4.500000	66.498	121.4603
4.550000	66.549	120.4547
4.620000	66.611	119.1640
4.680000	66.662	118.1693
4.750000	66.728	117.1432
4.820000	66.800	116.2868
4.870000	66.848	115.7892
4.940000	66.915	115.2175
5.000000	66.978	114.8122
5.080000	67.075	114.3408
5.150000	67.182	113.9536
5.220000	67.306	113.6679
5.300000	67.463	113.4424
5.380000	67.636	113.2431
5.450000	67.797	113.0233
5.520000	67.967	112.7108
5.600000	68.179	112.3052
5.700000	68.463	111.7318
5.800000	68.750	111.0454
5.900000	69.025	110.2031
6.000000	69.298	109.1906
6.080000	69.512	108.2931
6.150000	69.692	107.4699
6.220000	69.859	106.6330
6.300000	70.036	105.6417
6.400000	70.241	104.3253
6.500000	70.427	102.9918
6.600000	70.595	101.7152
6.700000	70.741	100.4828
6.800000	70.867	99.2797
6.900000	70.982	98.1452
7.000000	71.090	97.1147
7.100000	71.185	96.1805
7.200000	71.273	95.3265
7.300000	71.361	94.5405
7.400000	71.454	93.8277
7.500000	71.547	93.2011
7.620000	71.661	92.5034
7.750000	71.795	91.7475
7.880000	71.939	91.0272
8.000000	72.076	90.3508
8.120000	72.212	89.6134
8.250000	72.364	88.7644
8.380000	72.510	87.8701
8.500000	72.636	86.9989
8.620000	72.754	86.0782
8.750000	72.872	85.0654
8.850000	72.953	84.2952
9.000000	73.061	83.1299
9.120000	73.137	82.2217
9.250000	73.211	81.2892
9.380000	73.276	80.3961
9.500000	73.332	79.6090
9.620000	73.390	78.8647
9.750000	73.451	78.1031
9.880000	73.505	77.3620
10.000000	73.543	76.6918
10.150000	73.581	75.8747
10.300000	73.615	75.0446
10.440000	73.642	74.2568
10.600000	73.669	73.3428
10.750000	73.692	72.4648
10.900000	73.711	71.5734
11.060000	73.727	70.6287
11.200000	73.735	69.8033
11.380000	73.741	68.7649
11.500000	73.742	68.0925
11.720000	73.741	66.8937
11.800000	73.740	66.4701
12.060000	73.737	65.1302
12.200000	73.735	64.4190
12.410000	73.734	63.3649
12.500000	73.740	62.9128
12.650000	73.758	62.1588
12.800000	73.779	61.4095
13.150000	73.818	59.6877
13.200000	73.823	59.4486
13.400000	73.839	58.5104
13.600000	73.853	57.6065
13.800000	73.866	56.7417
14.000000	73.880	55.9019
14.300000	73.902	54.6794
14.500000	73.918	53.8706
14.750000	73.935	52.8633
15.000000	73.949	51.8610
15.250000	73.955	50.8807
15.500000	73.957	49.9389
15.750000	73.954	49.0421
16.000000	73.954	48.1924
16.250000	73.959	47.3715
16.500000	73.968	46.5682
16.750000	73.977	45.7663
17.000000	73.983	44.9638
17.250000	73.986	44.1658
17.500000	73.984	43.3810
17.750000	73.979	42.6203
18.000000	73.972	41.8836
18.250000	73.965	41.1701
18.500000	73.959	40.4683
18.750000	73.952	39.7733
19.000000	73.946	39.0802
19.250000	73.938	38.3909
19.500000	73.929	37.7098
19.750000	73.920	37.0402
20.000000	73.911	36.3839
20.299999	73.902	35.6093
20.600000	73.894	34.8448
20.900000	73.886	34.0880
21.200001	73.877	33.3437
21.400000	73.870	32.8600
21.799999	73.858	31.9269
22.000000	73.852	31.4763
22.400000	73.845	30.5940
22.700001	73.841	29.9351
23.000000	73.836	29.2734
23.299999	73.829	28.6188
23.600000	73.818	27.9841
24.000000	73.802	27.1840
24.299999	73.791	26.6161
24.700001	73.778	25.8817
25.000000	73.769	25.3342
25.400000	73.756	24.6056
25.799999	73.739	23.8957
26.200001	73.721	23.2193
26.500000	73.708	22.7294
26.900000	73.694	22.0814
27.200001	73.683	21.5889
27.600000	73.667	20.9249
28.000000	73.647	20.2723
28.500000	73.620	19.5013
29.000000	73.597	18.7760
29.500000	73.580	18.0624
30.000000	73.565	17.3369
30.400000	73.552	16.7522
30.700001	73.541	16.3191
31.100000	73.524	15.7590
31.500000	73.506	15.2240
32.000000	73.485	14.5847
32.500000	73.466	13.9591
33.000000	73.446	13.3353
33.500000	73.423	12.7258
34.000000	73.398	12.1478
34.500000	73.374	11.5950
35.000000	73.352	11.0468
35.500000	73.330	10.4989
36.000000	73.306	9.9662
36.500000	73.284	9.4518
37.000000	73.265	8.9360
37.500000	73.247	8.4044
38.200001	73.216	7.6611
38.700001	73.191	7.1610
39.500000	73.155	6.4130
40.000000	73.136	5.9546
40.599998	73.115	5.3981
41.200001	73.090	4.8442
41.799999	73.062	4.3185
42.500000	73.030	3.7522
43.099998	73.005	3.2825
43.700001	72.981	2.8127
44.400002	72.953	2.2713
45.000000	72.930	1.8097
45.500000	72.910	1.4227
46.200001	72.880	0.8936
46.799999	72.853	0.4660
47.500000	72.824	-0.0114
48.200001	72.797	-0.4857
48.700001	72.778	-0.8297
49.400002	72.748	-1.3124
50.000000	72.720	-1.7068
50.799999	72.684	-2.1969
51.500000	72.656	-2.6176
52.200001	72.628	-3.0386
53.000000	72.598	-3.5220
53.799999	72.565	-4.0133
54.500000	72.532	-4.4158
55.200001	72.503	-4.7803
56.000000	72.475	-5.2058
57.000000	72.435	-5.7695
58.000000	72.389	-6.2704
59.000000	72.350	-6.7698
60.000000	72.301	-7.2673
60.799999	72.265	-7.5978
61.500000	72.241	-7.8978
62.200001	72.216	-8.2344
63.000000	72.182	-8.6100
64.000000	72.137	-9.0337
65.000000	72.095	-9.4440
66.000000	72.053	-9.8476
67.000000	72.010	-10.2404
68.000000	71.966	-10.6174
69.000000	71.923	-10.9744
70.000000	71.882	-11.3324
71.000000	71.839	-11.7014
72.000000	71.794	-12.0450
73.000000	71.752	-12.4041
74.000000	71.700	-12.7250
75.000000	71.662	-12.9828
76.199997	71.614	-13.4153
77.500000	71.555	-13.7706
78.800003	71.503	-14.1698
80.000000	71.451	-14.4702
81.199997	71.405	-14.7678
82.500000	71.355	-15.0733
83.800003	71.306	-15.4106
85.000000	71.251	-15.7220
86.199997	71.196	-15.9766
87.500000	71.143	-16.2417
88.500000	71.107	-16.4656
90.000000	71.042	-16.8171
91.199997	70.995	-17.0353
92.500000	70.948	-17.2982
93.800003	70.896	-17.5524
95.000000	70.849	-17.7452
96.199997	70.803	-17.9442
97.500000	70.756	-18.1516
98.800003	70.704	-18.3680
100.000000	70.659	-18.5433
101.500000	70.601	-18.7637
103.000000	70.545	-18.9877
104.400002	70.490	-19.1569
106.000000	70.430	-19.3677
107.500000	70.382	-19.5499
109.000000	70.323	-19.7615
110.599998	70.268	-19.9302
112.000000	70.219	-20.0725
113.800003	70.156	-20.2537
115.000000	70.114	-20.3533
117.199997	70.038	-20.5547
118.000000	70.011	-20.6326
120.599998	69.922	-20.8203
122.000000	69.873	-20.9378
124.099998	69.807	-21.0745
125.000000	69.776	-21.1422
126.500000	69.733	-21.2310
128.000000	69.688	-21.3478
131.500000	69.587	-21.4819
132.000000	69.574	-21.5038
134.000000	69.523	-21.5541
136.000000	69.473	-21.6707
138.000000	69.417	-21.7375
140.000000	69.361	-21.8232
143.000000	69.282	-21.8995
145.000000	69.231	-21.9379
147.500000	69.172	-21.9528
150.000000	69.105	-22.0062
152.500000	69.043	-22.0211
155.000000	68.984	-22.0375
157.500000	68.922	-22.0358
160.000000	68.866	-22.0123
162.500000	68.793	-22.0077
165.000000	68.722	-21.9962
167.500000	68.654	-21.9563
170.000000	68.586	-21.9388
172.500000	68.527	-21.8707
175.000000	68.456	-21.8138
177.500000	68.390	-21.7185
180.000000	68.326	-21.6860
182.500000	68.267	-21.6329
185.000000	68.209	-21.5867
187.500000	68.145	-21.4796
190.000000	68.084	-21.3703
192.500000	68.026	-21.2692
195.000000	67.973	-21.2049
197.500000	67.916	-21.1172
200.000000	67.863	-21.0131
203.000000	67.803	-20.8644
206.000000	67.739	-20.7202
209.000000	67.685	-20.5874
212.000000	67.630	-20.4150
214.000000	67.591	-20.3204
218.000000	67.522	-20.1263
220.000000	67.485	-20.0267
224.000000	67.414	-19.7579
227.000000	67.367	-19.5929
230.000000	67.324	-19.4418
233.000000	67.274	-19.2975
236.000000	67.229	-19.1479
240.000000	67.169	-18.9261
243.000000	67.127	-18.7169
247.000000	67.061	-18.4136
250.000000	67.024	-18.2289
254.000000	66.971	-18.0109
258.000000	66.918	-17.7500
262.000000	66.862	-17.4407
265.000000	66.823	-17.2285
269.000000	66.774	-16.9730
272.000000	66.742	-16.7996
276.000000	66.699	-16.5340
280.000000	66.657	-16.2059
285.000000	66.600	-15.8828
290.000000	66.541	-15.5559
295.000000	66.498	-15.1860
300.000000	66.449	-14.8461
304.000000	66.418	-14.5608
307.000000	66.385	-14.3190
311.000000	66.343	-13.9697
315.000000	66.311	-13.7172
320.000000	66.265	-13.4002
325.000000	66.221	-12.9999
330.000000	66.180	-12.5762
335.000000	66.147	-12.2197
340.000000	66.106	-11.8545
345.000000	66.061	-11.4623
350.000000	66.027	-11.1198
355.000000	65.999	-10.7246
360.000000	65.959	-10.3489
365.000000	65.929	-9.9921
370.000000	65.905	-9.6235
375.000000	65.877	-9.2316
382.000000	65.831	-8.7216
387.000000	65.806	-8.3318
395.000000	65.767	-7.7050
400.000000	65.735	-7.3267
406.000000	65.706	-6.8989
412.000000	65.687	-6.4298
418.000000	65.655	-5.9246
425.000000	65.628	-5.4194
431.000000	65.605	-4.9751
437.000000	65.583	-4.5094
444.000000	65.560	-4.0122
450.000000	65.540	-3.5748
455.000000	65.526	-3.1815
462.000000	65.501	-2.6692
468.000000	65.485	-2.2144
475.000000	65.470	-1.6743
482.000000	65.452	-1.1416
487.000000	65.434	-0.7468
494.000000	65.427	-0.2225
500.000000	65.414	0.1987
508.000000	65.406	0.7704
515.000000	65.395	1.2687
522.000000	65.384	1.8278
530.000000	65.381	2.4047
538.000000	65.370	3.0427
545.000000	65.364	3.5010
552.000000	65.357	4.0667
560.000000	65.357	4.6421
570.000000	65.355	5.3282
580.000000	65.349	6.1049
590.000000	65.356	6.8411
600.000000	65.358	7.6058
608.000000	65.359	8.1721
615.000000	65.363	8.6562
622.000000	65.372	9.1594
630.000000	65.377	9.7225
640.000000	65.388	10.4998
650.000000	65.400	11.2698
660.000000	65.420	11.9689
670.000000	65.435	12.7375
680.000000	65.450	13.4647
690.000000	65.469	14.1315
700.000000	65.500	14.8986
710.000000	65.521	15.6315
720.000000	65.542	16.3412
730.000000	65.574	17.0602
740.000000	65.603	17.8075
750.000000	65.644	18.5406
762.000000	65.684	19.4113
775.000000	65.740	20.3350
788.000000	65.790	21.2724
800.000000	65.843	22.1414
812.000000	65.894	22.9841
825.000000	65.942	23.9113
838.000000	66.009	24.8741
850.000000	66.068	25.6466
862.000000	66.126	26.4952
875.000000	66.200	27.3368
885.000000	66.259	28.0001
900.000000	66.363	28.9844
912.000000	66.434	29.6991
925.000000	66.525	30.4887
938.000000	66.624	31.2307
950.000000	66.710	31.9127
962.000000	66.803	32.5688
975.000000	66.909	33.2379
988.000000	67.008	33.8709
1000.000000	67.098	34.4693
1015.000000	67.242	35.0600
1030.000000	67.378	35.6847
1044.000000	67.504	36.2146
1060.000000	67.661	36.7824
1075.000000	67.797	37.2277
1090.000000	67.932	37.6854
1106.000000	68.071	38.1537
1120.000000	68.200	38.4427
1138.000000	68.352	38.8846
1150.000000	68.462	39.1075
1172.000000	68.633	39.6010
1180.000000	68.694	39.7706
1206.000000	68.901	40.2851
1220.000000	69.012	40.4959
1241.000000	69.166	40.8534
1250.000000	69.241	41.0149
1265.000000	69.321	41.3041
1280.000000	69.400	41.5364
1315.000000	69.597	42.0578
1320.000000	69.625	42.1201
1340.000000	69.729	42.4053
1360.000000	69.836	42.6978
1380.000000	69.939	43.0107
1400.000000	70.044	43.2928
1430.000000	70.202	43.7175
1450.000000	70.310	44.0225
1475.000000	70.450	44.3424
1500.000000	70.583	44.6513
1525.000000	70.720	44.9876
1550.000000	70.866	45.2944
1575.000000	71.010	45.5267
1600.000000	71.160	45.7979
1625.000000	71.346	46.0660
1650.000000	71.533	46.2344
1675.000000	71.729	46.4078
1700.000000	71.929	46.5244
1725.000000	72.128	46.5959
1750.000000	72.328	46.6543
1775.000000	72.530	46.6471
1800.000000	72.735	46.5623
1825.000000	72.937	46.4651
1850.000000	73.140	46.3354
1875.000000	73.345	46.1424
1900.000000	73.560	45.8612
1925.000000	73.774	45.4889
1950.000000	73.986	45.0515
1975.000000	74.197	44.5046
2000.000000	74.414	43.9017
2030.000000	74.639	42.8698
2060.000000	74.866	41.7132
2090.000000	75.080	40.4320
2120.000000	75.276	38.9088
2140.000000	75.392	37.8551
2180.000000	75.600	35.4376
2200.000000	75.690	34.1108
2240.000000	75.832	31.2820
2270.000000	75.899	29.0027
2300.000000	75.929	26.7042
2330.000000	75.918	24.4218
2360.000000	75.866	22.2440
2400.000000	75.747	19.7507
2430.000000	75.646	18.2500
2470.000000	75.549	16.7301
2500.000000	75.512	15.7913
2540.000000	75.499	14.3824
2580.000000	75.486	12.8179
2620.000000	75.460	11.1351
2650.000000	75.431	9.8646
2690.000000	75.383	8.1187
2720.000000	75.332	6.8538
2760.000000	75.246	5.2454
2800.000000	75.143	3.7318
2850.000000	74.996	1.9959
2900.000000	74.836	0.4559
2950.000000	74.668	-0.8851
3000.000000	74.495	-2.1058
3040.000000	74.340	-2.8868
3070.000000	74.228	-3.4356
3110.000000	74.075	-4.1134
3150.000000	73.924	-4.6321
3200.000000	73.734	-5.1505
3250.000000	73.541	-5.4696
3300.000000	73.365	-5.5070
3350.000000	73.205	-5.3478
3400.000000	73.082	-5.1519
3450.000000	72.980	-4.9214
3500.000000	72.894	-4.7599
3550.000000	72.836	-4.4778
3600.000000	72.812	-4.2889
3650.000000	72.816	-4.3338
3700.000000	72.812	-4.6121
3750.000000	72.796	-5.2117
3820.000000	72.702	-6.3235
3870.000000	72.563	-7.0641
3950.000000	72.239	-7.3193
4000.000000	72.064	-6.8259
4060.000000	71.912	-6.2968
4120.000000	71.769	-5.7115
4180.000000	71.650	-4.8809
4250.000000	71.579	-3.8348
4310.000000	71.554	-2.9904
4370.000000	71.567	-1.9825
4440.000000	71.668	-0.8835
4500.000000	71.803	-0.3591
4550.000000	71.920	-0.2026
4620.000000	72.057	-0.3599
4680.000000	72.175	-0.7203
4750.000000	72.281	-1.4431
4820.000000	72.326	-2.4036
4870.000000	72.325	-3.0205
4940.000000	72.345	-3.6318
5000.000000	72.385	-4.2089
5080.000000	72.416	-5.3916
5150.000000	72.421	-6.7513
5220.000000	72.373	-8.3533
5300.000000	72.233	-10.3505
5380.000000	71.982	-12.3867
5450.000000	71.647	-13.8407
5520.000000	71.232	-14.6038
5600.000000	70.721	-14.0909
5700.000000	70.268	-11.8736
5800.000000	70.079	-9.4895
5900.000000	70.019	-8.2686
6000.000000	69.913	-7.8293
6080.000000	69.777	-7.4021
6150.000000	69.664	-6.8821
6220.000000	69.549	-6.3597
6300.000000	69.417	-5.8045
6400.000000	69.296	-4.8696
6500.000000	69.173	-3.4160
6600.000000	69.133	-1.7839
6700.000000	69.133	0.0082
6800.000000	69.179	1.5334
6900.000000	69.240	3.0006
7000.000000	69.333	4.4699
7100.000000	69.459	5.7194
7200.000000	69.583	6.7587
7300.000000	69.722	7.7300
7400.000000	69.846	8.6564
7500.000000	69.965	9.5002
7620.000000	70.156	10.6564
7750.000000	70.395	11.6545
7880.000000	70.590	12.5227
8000.000000	70.797	14.0463
8120.000000	70.988	15.2379
8250.000000	71.338	15.9642
8380.000000	71.790	16.9552
8500.000000	72.636	16.3723
8620.000000	73.495	12.0543
8750.000000	74.058	4.1788
8850.000000	74.162	-2.8481
9000.000000	73.779	-13.0815
9120.000000	73.146	-19.7754
9250.000000	72.268	-25.1969
9380.000000	71.325	-28.9397
9500.000000	70.398	-31.2312
9620.000000	69.436	-32.6829
9750.000000	68.301	-32.9417
9880.000000	67.135	-31.1740
10000.000000	66.217	-27.9091
10150.000000	65.419	-22.2592
10300.000000	64.988	-16.2198
10440.000000	64.814	-10.9778
10600.000000	64.930	-5.6646
10750.000000	65.037	-2.6658
10900.000000	65.243	0.7707
11060.000000	65.394	3.6409
11200.000000	65.650	7.0255
11380.000000	66.323	10.7245
11500.000000	66.910	11.8320
11720.000000	68.090	10.9691
11800.000000	68.579	9.3622
12060.000000	69.566	-1.5964
12200.000000	69.518	-9.3497
12410.000000	68.638	-18.8625
12500.000000	68.119	-21.6120
12650.000000	67.117	-24.3400
12800.000000	66.161	-25.2649
13150.000000	64.280	-22.9748
13200.000000	64.080	-22.1702
13400.000000	63.350	-19.9084
13600.000000	62.761	-17.6365
13800.000000	62.310	-15.6050
14000.000000	61.860	-14.7330
14300.000000	60.972	-15.3014
14500.000000	60.138	-14.8295
14750.000000	59.061	-10.5142
15000.000000	58.478	-4.5046
15250.000000	58.423	-0.1241
15500.000000	58.457	1.2883
15750.000000	58.223	0.1440
16000.000000	57.388	-0.1036
16250.000000	56.935	1.3290
16500.000000	56.736	4.7944
16750.000000	56.705	7.5057
17000.000000	56.604	10.0959
17250.000000	56.446	12.7303
17500.000000	56.249	17.0651
17750.000000	56.189	21.7914
18000.000000	56.218	27.5508
18250.000000	56.674	33.2690
18500.000000	57.312	37.7979
18750.000000	58.169	39.7412
19000.000000	58.868	38.8764
19250.000000	59.160	35.5589
19500.000000	59.153	31.1496
19750.000000	58.715	26.0983
