* Measurement data measured by REW V5.20.13
* Source: C:\Users\marcu\OneDrive\Desktop\Fix\Raptgo Bridge s.01 f.B Stock White L.txt
* Format: Comma/Tab/Space delimited data
* Dated: Jul 17, 2023 6:58:13 PM
* REW Settings:
*  C-weighting compensation: Off
*  Target level: 75.0 dB
* Note: ; Measurement imported from C:\Users\marcu\OneDrive\Desktop\Fix\Raptgo Bridge s.01 f.B Stock White L.txt Format: Comma/Tab/Space delimited data 54613 values loaded, 0 Hz to 20,000 Hz
* Measurement: s.01 f.B Stock White L
* Smoothing: None
* Frequency Step: 1/48 octave
* Start Frequency: 1.000 Hz
*
* Freq(Hz)	SPL(dB)	Phase(degrees)
1.000000	59.124	127.3093
1.015000	58.974	126.4699
1.030000	58.819	125.6227
1.044000	58.670	124.8245
1.060000	58.495	123.9028
1.075000	58.326	123.0289
1.090000	58.152	122.1449
1.106000	57.962	121.1957
1.120000	57.793	120.3895
1.138000	57.575	119.3889
1.150000	57.428	118.7403
1.172000	57.155	117.5794
1.180000	57.054	117.1638
1.206000	56.720	115.8244
1.220000	56.537	115.1036
1.241000	56.255	114.0112
1.250000	56.131	113.5360
1.265000	55.922	112.7304
1.280000	55.708	111.9034
1.315000	55.186	109.8613
1.320000	55.109	109.5539
1.340000	54.794	108.2776
1.360000	54.467	106.9173
1.380000	54.127	105.4606
1.400000	53.773	103.8954
1.430000	53.216	101.3173
1.450000	52.824	99.4272
1.475000	52.306	96.8653
1.500000	51.716	94.1978
1.525000	51.057	91.4429
1.550000	50.343	88.5874
1.575000	49.588	85.6177
1.600000	48.807	82.5204
1.625000	48.016	79.2821
1.650000	47.227	75.8894
1.675000	46.457	72.3288
1.700000	45.719	68.5870
1.725000	45.029	64.6504
1.750000	44.400	60.5057
1.775000	43.847	56.1395
1.800000	43.385	51.5382
1.825000	43.028	46.6885
1.850000	42.782	41.4424
1.875000	42.627	35.5327
1.900000	42.552	29.0605
1.925000	42.550	22.1421
1.950000	42.610	14.8933
1.975000	42.724	7.4306
2.000000	42.881	-0.1300
2.030000	43.117	-9.1685
2.060000	43.386	-17.9801
2.090000	43.675	-26.3641
2.120000	43.967	-34.1199
2.140000	44.156	-38.8423
2.180000	44.497	-46.9438
2.200000	44.641	-50.2060
2.240000	44.942	-55.4520
2.270000	45.199	-58.4872
2.300000	45.476	-60.8491
2.330000	45.767	-62.6253
2.360000	46.067	-63.9034
2.400000	46.471	-64.9841
2.430000	46.771	-65.4408
2.470000	47.155	-65.7444
2.500000	47.424	-65.8567
2.540000	47.747	-66.0192
2.580000	48.018	-66.3094
2.620000	48.237	-66.2217
2.650000	48.374	-65.8603
2.690000	48.530	-65.0510
2.720000	48.634	-64.2442
2.760000	48.765	-62.9687
2.800000	48.898	-61.5412
2.850000	49.085	-59.6703
2.900000	49.319	-57.8548
2.950000	49.619	-56.2020
3.000000	49.966	-54.3569
3.040000	50.270	-52.7335
3.070000	50.509	-51.4673
3.110000	50.841	-49.7597
3.150000	51.183	-48.0821
3.200000	51.620	-46.1139
3.250000	52.057	-44.3923
3.300000	52.489	-43.0278
3.350000	52.930	-41.9859
3.400000	53.389	-41.1713
3.450000	53.858	-40.5555
3.500000	54.327	-40.1101
3.550000	54.787	-39.8065
3.600000	55.229	-39.6164
3.650000	55.644	-39.5111
3.700000	56.030	-39.5077
3.750000	56.399	-39.6813
3.820000	56.890	-40.1586
3.870000	57.221	-40.6164
3.950000	57.716	-41.4484
4.000000	58.005	-41.9725
4.060000	58.328	-42.5715
4.120000	58.623	-43.2387
4.180000	58.893	-43.9629
4.250000	59.180	-44.8369
4.310000	59.408	-45.5739
4.370000	59.622	-46.2655
4.440000	59.856	-46.9978
4.500000	60.035	-47.6054
4.550000	60.171	-48.0948
4.620000	60.346	-48.7437
4.680000	60.488	-49.2566
4.750000	60.650	-49.7920
4.820000	60.807	-50.2477
4.870000	60.911	-50.5273
4.940000	61.048	-50.8671
5.000000	61.163	-51.1215
5.080000	61.316	-51.4263
5.150000	61.457	-51.6741
5.220000	61.599	-51.8701
5.300000	61.762	-52.0443
5.380000	61.927	-52.2051
5.450000	62.074	-52.3671
5.520000	62.226	-52.5727
5.600000	62.405	-52.8227
5.700000	62.635	-53.1647
5.800000	62.866	-53.5765
5.900000	63.091	-54.0948
6.000000	63.317	-54.7145
6.080000	63.496	-55.2696
6.150000	63.648	-55.7912
6.220000	63.794	-56.3400
6.300000	63.953	-57.0108
6.400000	64.144	-57.9214
6.500000	64.324	-58.8744
6.600000	64.493	-59.8297
6.700000	64.650	-60.7990
6.800000	64.795	-61.7867
6.900000	64.932	-62.7626
7.000000	65.063	-63.7006
7.100000	65.186	-64.6135
7.200000	65.303	-65.5027
7.300000	65.419	-66.3628
7.400000	65.537	-67.1866
7.500000	65.652	-67.9746
7.620000	65.792	-68.8938
7.750000	65.949	-69.8790
7.880000	66.112	-70.8378
8.000000	66.266	-71.7237
8.120000	66.422	-72.6356
8.250000	66.597	-73.6411
8.380000	66.772	-74.6702
8.500000	66.931	-75.6504
8.620000	67.090	-76.6593
8.750000	67.258	-77.7669
8.850000	67.382	-78.6218
9.000000	67.563	-79.9218
9.120000	67.702	-80.9520
9.250000	67.846	-82.0411
9.380000	67.982	-83.1124
9.500000	68.104	-84.0691
9.620000	68.223	-84.9859
9.750000	68.347	-85.9407
9.880000	68.469	-86.8546
10.000000	68.581	-87.6581
10.150000	68.719	-88.6132
10.300000	68.856	-89.5304
10.440000	68.985	-90.3483
10.600000	69.133	-91.2543
10.750000	69.271	-92.0881
10.900000	69.408	-92.9044
11.060000	69.552	-93.7710
11.200000	69.676	-94.5246
11.380000	69.830	-95.4883
11.500000	69.929	-96.1295
11.720000	70.103	-97.2948
11.800000	70.163	-97.7139
12.060000	70.347	-99.0573
12.200000	70.439	-99.7614
12.410000	70.569	-100.7919
12.500000	70.621	-101.2215
12.650000	70.705	-101.9218
12.800000	70.785	-102.6036
13.150000	70.960	-104.1224
13.200000	70.984	-104.3334
13.400000	71.078	-105.1607
13.600000	71.169	-105.9761
13.800000	71.257	-106.7836
14.000000	71.343	-107.5946
14.300000	71.465	-108.8222
14.500000	71.542	-109.6524
14.750000	71.632	-110.6955
15.000000	71.714	-111.7398
15.250000	71.791	-112.7711
15.500000	71.863	-113.7820
15.750000	71.933	-114.7694
16.000000	72.002	-115.7344
16.250000	72.071	-116.6867
16.500000	72.142	-117.6321
16.750000	72.213	-118.5793
17.000000	72.283	-119.5286
17.250000	72.350	-120.4755
17.500000	72.415	-121.4131
17.750000	72.475	-122.3262
18.000000	72.533	-123.2071
18.250000	72.588	-124.0481
18.500000	72.644	-124.8479
18.750000	72.701	-125.6135
19.000000	72.758	-126.3515
19.250000	72.817	-127.0771
19.500000	72.876	-127.7984
19.750000	72.934	-128.5207
20.000000	72.988	-129.2448
20.299999	73.046	-130.1035
20.600000	73.095	-130.9363
20.900000	73.138	-131.7274
21.200001	73.177	-132.4688
21.400000	73.203	-132.9407
21.799999	73.254	-133.8557
22.000000	73.281	-134.3128
22.400000	73.332	-135.2520
22.700001	73.366	-135.9801
23.000000	73.394	-136.7144
23.299999	73.417	-137.4353
23.600000	73.436	-138.1331
24.000000	73.461	-139.0305
24.299999	73.481	-139.6966
24.700001	73.509	-140.5984
25.000000	73.528	-141.2837
25.400000	73.547	-142.1803
25.799999	73.562	-143.0117
26.200001	73.583	-143.7655
26.500000	73.606	-144.3064
26.900000	73.647	-145.0483
27.200001	73.680	-145.6475
27.600000	73.717	-146.4999
28.000000	73.741	-147.3568
28.500000	73.753	-148.3275
29.000000	73.764	-149.1477
29.500000	73.785	-149.8919
30.000000	73.812	-150.6590
30.400000	73.832	-151.3044
30.700001	73.842	-151.7929
31.100000	73.851	-152.4285
31.500000	73.856	-153.0388
32.000000	73.863	-153.7804
32.500000	73.869	-154.5202
33.000000	73.872	-155.2587
33.500000	73.872	-155.9777
34.000000	73.872	-156.6676
34.500000	73.874	-157.3382
35.000000	73.877	-158.0006
35.500000	73.879	-158.6513
36.000000	73.882	-159.2792
36.500000	73.886	-159.8891
37.000000	73.891	-160.5038
37.500000	73.894	-161.1342
38.200001	73.886	-161.9907
38.700001	73.877	-162.5378
39.500000	73.874	-163.3587
40.000000	73.876	-163.9164
40.599998	73.870	-164.6292
41.200001	73.853	-165.3007
41.799999	73.837	-165.8992
42.500000	73.828	-166.5843
43.099998	73.818	-167.2017
43.700001	73.805	-167.8029
44.400002	73.788	-168.4479
45.000000	73.778	-168.9776
45.500000	73.770	-169.4196
46.200001	73.757	-170.0347
46.799999	73.745	-170.5553
47.500000	73.729	-171.1540
48.200001	73.710	-171.7256
48.700001	73.696	-172.1138
49.400002	73.679	-172.6493
50.000000	73.664	-173.1134
50.799999	73.643	-173.7274
51.500000	73.623	-174.2516
52.200001	73.602	-174.7638
53.000000	73.578	-175.3271
53.799999	73.556	-175.8789
54.500000	73.535	-176.3561
55.200001	73.515	-176.8137
56.000000	73.494	-177.3462
57.000000	73.459	-178.0222
58.000000	73.427	-178.5945
59.000000	73.402	-179.2396
60.000000	73.356	-179.8504
60.799999	73.327	179.7674
61.500000	73.311	179.3765
62.200001	73.284	178.9490
63.000000	73.250	178.5178
64.000000	73.212	178.0187
65.000000	73.179	177.4963
66.000000	73.141	176.9744
67.000000	73.104	176.4949
68.000000	73.072	176.0225
69.000000	73.038	175.5546
70.000000	73.005	175.0972
71.000000	72.968	174.6322
72.000000	72.930	174.2306
73.000000	72.898	173.7891
74.000000	72.851	173.3481
75.000000	72.809	173.0296
76.199997	72.773	172.5639
77.500000	72.716	172.0780
78.800003	72.672	171.6390
80.000000	72.628	171.1976
81.199997	72.585	170.7668
82.500000	72.536	170.2825
83.800003	72.482	169.8303
85.000000	72.433	169.4514
86.199997	72.387	169.0968
87.500000	72.341	168.7123
88.500000	72.302	168.4267
90.000000	72.249	168.0198
91.199997	72.202	167.6779
92.500000	72.151	167.3527
93.800003	72.101	167.0248
95.000000	72.055	166.7340
96.199997	72.010	166.4396
97.500000	71.961	166.1352
98.800003	71.913	165.8480
100.000000	71.869	165.5806
101.500000	71.813	165.2701
103.000000	71.757	164.9645
104.400002	71.704	164.6790
106.000000	71.642	164.3765
107.500000	71.587	164.1147
109.000000	71.533	163.8545
110.599998	71.478	163.5831
112.000000	71.427	163.3515
113.800003	71.364	163.0569
115.000000	71.321	162.8620
117.199997	71.242	162.5451
118.000000	71.214	162.4355
120.599998	71.124	162.0823
122.000000	71.075	161.9063
124.099998	70.999	161.6777
125.000000	70.968	161.5892
126.500000	70.917	161.4251
128.000000	70.866	161.2698
131.500000	70.750	160.9149
132.000000	70.733	160.8663
134.000000	70.666	160.6880
136.000000	70.600	160.5150
138.000000	70.533	160.3586
140.000000	70.469	160.2138
143.000000	70.373	159.9920
145.000000	70.310	159.8571
147.500000	70.231	159.7065
150.000000	70.156	159.5901
152.500000	70.081	159.4985
155.000000	70.009	159.3951
157.500000	69.932	159.2770
160.000000	69.857	159.1981
162.500000	69.784	159.1228
165.000000	69.711	159.0678
167.500000	69.643	159.0208
170.000000	69.578	158.9692
172.500000	69.508	158.9362
175.000000	69.437	158.9115
177.500000	69.369	158.8953
180.000000	69.303	158.8935
182.500000	69.240	158.9011
185.000000	69.177	158.9060
187.500000	69.115	158.9113
190.000000	69.050	158.9296
192.500000	68.985	158.9659
195.000000	68.924	159.0114
197.500000	68.865	159.0554
200.000000	68.806	159.1038
203.000000	68.732	159.1544
206.000000	68.666	159.2087
209.000000	68.602	159.2753
212.000000	68.539	159.3793
214.000000	68.493	159.4475
218.000000	68.405	159.5577
220.000000	68.362	159.6129
224.000000	68.280	159.7527
227.000000	68.217	159.8959
230.000000	68.156	160.0434
233.000000	68.096	160.1625
236.000000	68.036	160.2791
240.000000	67.962	160.4589
243.000000	67.906	160.5959
247.000000	67.833	160.7877
250.000000	67.779	160.9343
254.000000	67.708	161.1383
258.000000	67.639	161.3378
262.000000	67.570	161.5798
265.000000	67.520	161.7667
269.000000	67.457	161.9865
272.000000	67.409	162.1418
276.000000	67.345	162.3895
280.000000	67.282	162.6354
285.000000	67.209	162.9430
290.000000	67.134	163.2689
295.000000	67.063	163.6028
300.000000	66.993	163.9153
304.000000	66.937	164.1592
307.000000	66.898	164.3723
311.000000	66.847	164.6552
315.000000	66.797	164.9188
320.000000	66.737	165.2609
325.000000	66.678	165.6113
330.000000	66.617	165.9644
335.000000	66.560	166.3040
340.000000	66.505	166.6736
345.000000	66.453	167.0544
350.000000	66.401	167.4001
355.000000	66.350	167.7636
360.000000	66.297	168.1639
365.000000	66.247	168.5324
370.000000	66.202	168.8958
375.000000	66.158	169.2863
382.000000	66.097	169.8015
387.000000	66.055	170.1752
395.000000	65.984	170.7660
400.000000	65.946	171.1295
406.000000	65.902	171.5852
412.000000	65.856	172.0681
418.000000	65.810	172.5407
425.000000	65.761	173.0638
431.000000	65.721	173.5156
437.000000	65.680	173.9902
444.000000	65.640	174.5353
450.000000	65.602	174.9968
455.000000	65.573	175.3777
462.000000	65.537	175.9111
468.000000	65.505	176.3719
475.000000	65.467	176.9095
482.000000	65.434	177.4468
487.000000	65.409	177.8399
494.000000	65.373	178.3951
500.000000	65.346	178.8600
508.000000	65.309	179.4731
515.000000	65.284	-179.9865
522.000000	65.259	-179.4325
530.000000	65.227	-178.8412
538.000000	65.200	-178.2374
545.000000	65.180	-177.7077
552.000000	65.157	-177.1708
560.000000	65.133	-176.5735
570.000000	65.106	-175.8412
580.000000	65.078	-175.0856
590.000000	65.054	-174.3678
600.000000	65.019	-173.6863
608.000000	64.990	-173.1490
615.000000	64.956	-172.6538
622.000000	64.916	-172.0927
630.000000	64.871	-171.3401
640.000000	64.838	-170.2561
650.000000	64.829	-169.1997
660.000000	64.834	-168.2289
670.000000	64.844	-167.3124
680.000000	64.857	-166.4239
690.000000	64.869	-165.5706
700.000000	64.883	-164.7228
710.000000	64.897	-163.8893
720.000000	64.911	-163.0702
730.000000	64.929	-162.2451
740.000000	64.951	-161.4171
750.000000	64.971	-160.5932
762.000000	64.998	-159.6015
775.000000	65.033	-158.5403
788.000000	65.075	-157.4848
800.000000	65.111	-156.4976
812.000000	65.157	-155.4883
825.000000	65.209	-154.4323
838.000000	65.263	-153.4108
850.000000	65.321	-152.4357
862.000000	65.387	-151.4711
875.000000	65.461	-150.4555
885.000000	65.520	-149.6963
900.000000	65.618	-148.5717
912.000000	65.701	-147.6910
925.000000	65.789	-146.7361
938.000000	65.883	-145.8293
950.000000	65.974	-145.0001
962.000000	66.069	-144.1943
975.000000	66.169	-143.3030
988.000000	66.276	-142.4147
1000.000000	66.383	-141.5819
1015.000000	66.543	-140.5382
1030.000000	66.727	-139.6631
1044.000000	66.901	-139.0753
1060.000000	67.078	-138.5685
1075.000000	67.222	-138.1140
1090.000000	67.366	-137.5932
1106.000000	67.521	-137.0842
1120.000000	67.655	-136.6957
1138.000000	67.824	-136.2486
1150.000000	67.937	-135.9613
1172.000000	68.135	-135.4947
1180.000000	68.206	-135.3414
1206.000000	68.432	-134.8754
1220.000000	68.551	-134.6321
1241.000000	68.724	-134.3133
1250.000000	68.798	-134.1975
1265.000000	68.919	-134.0139
1280.000000	69.038	-133.8251
1315.000000	69.305	-133.4072
1320.000000	69.342	-133.3502
1340.000000	69.492	-133.1279
1360.000000	69.639	-132.9239
1380.000000	69.787	-132.7261
1400.000000	69.935	-132.5368
1430.000000	70.153	-132.2738
1450.000000	70.298	-132.1098
1475.000000	70.482	-131.9357
1500.000000	70.669	-131.7784
1525.000000	70.856	-131.6308
1550.000000	71.044	-131.5261
1575.000000	71.234	-131.4598
1600.000000	71.428	-131.4226
1625.000000	71.623	-131.4261
1650.000000	71.821	-131.4958
1675.000000	72.022	-131.6103
1700.000000	72.223	-131.7699
1725.000000	72.426	-131.9993
1750.000000	72.632	-132.2934
1775.000000	72.836	-132.6669
1800.000000	73.039	-133.1173
1825.000000	73.239	-133.6472
1850.000000	73.434	-134.2527
1875.000000	73.624	-134.9276
1900.000000	73.811	-135.6745
1925.000000	73.995	-136.4962
1950.000000	74.175	-137.4107
1975.000000	74.349	-138.4077
2000.000000	74.517	-139.4952
2030.000000	74.704	-140.9339
2060.000000	74.872	-142.5032
2090.000000	75.022	-144.1730
2120.000000	75.148	-145.9208
2140.000000	75.220	-147.1324
2180.000000	75.334	-149.6599
2200.000000	75.375	-150.9514
2240.000000	75.422	-153.5363
2270.000000	75.425	-155.4623
2300.000000	75.406	-157.3571
2330.000000	75.364	-159.2031
2360.000000	75.304	-160.9681
2400.000000	75.192	-163.1743
2430.000000	75.088	-164.7150
2470.000000	74.926	-166.5653
2500.000000	74.791	-167.8112
2540.000000	74.602	-169.3052
2580.000000	74.402	-170.5744
2620.000000	74.191	-171.6190
2650.000000	74.031	-172.2709
2690.000000	73.821	-172.9782
2720.000000	73.663	-173.3792
2760.000000	73.459	-173.7776
2800.000000	73.262	-174.0322
2850.000000	73.027	-174.1575
2900.000000	72.802	-174.0818
2950.000000	72.594	-173.8534
3000.000000	72.403	-173.4887
3040.000000	72.262	-173.1010
3070.000000	72.164	-172.7712
3110.000000	72.044	-172.2760
3150.000000	71.935	-171.7286
3200.000000	71.815	-170.9836
3250.000000	71.712	-170.1730
3300.000000	71.625	-169.3108
3350.000000	71.555	-168.4073
3400.000000	71.502	-167.4781
3450.000000	71.468	-166.5348
3500.000000	71.449	-165.5706
3550.000000	71.446	-164.6108
3600.000000	71.460	-163.6442
3650.000000	71.487	-162.6845
3700.000000	71.527	-161.7244
3750.000000	71.585	-160.7989
3820.000000	71.691	-159.5299
3870.000000	71.786	-158.6602
3950.000000	71.964	-157.3120
4000.000000	72.098	-156.5241
4060.000000	72.286	-155.6500
4120.000000	72.506	-154.8923
4180.000000	72.755	-154.3074
4250.000000	73.085	-153.9608
4310.000000	73.392	-154.0615
4370.000000	73.707	-154.6356
4440.000000	74.044	-156.0044
4500.000000	74.263	-157.6827
4550.000000	74.371	-159.2063
4620.000000	74.414	-161.0479
4680.000000	74.405	-162.0372
4750.000000	74.428	-162.5034
4820.000000	74.550	-162.6443
4870.000000	74.703	-162.8931
4940.000000	74.983	-163.8080
5000.000000	75.240	-165.2761
5080.000000	75.540	-168.2252
5150.000000	75.710	-171.5855
5220.000000	75.763	-175.4235
5300.000000	75.660	179.9883
5380.000000	75.384	175.6725
5450.000000	75.016	172.4262
5520.000000	74.545	169.9066
5600.000000	73.907	168.2423
5700.000000	73.101	168.9286
5800.000000	72.760	171.3799
5900.000000	72.659	170.8510
6000.000000	72.174	169.6626
6080.000000	71.710	170.0117
6150.000000	71.333	170.9544
6220.000000	70.998	172.2654
6300.000000	70.662	174.0789
6400.000000	70.310	176.6889
6500.000000	70.033	179.5404
6600.000000	69.829	-177.4254
6700.000000	69.696	-174.2360
6800.000000	69.635	-170.9320
6900.000000	69.655	-167.5434
7000.000000	69.759	-164.1612
7100.000000	69.957	-160.8738
7200.000000	70.253	-157.7803
7300.000000	70.640	-155.0018
7400.000000	71.123	-152.6144
7500.000000	71.700	-150.7392
7620.000000	72.527	-149.4575
7750.000000	73.583	-149.8694
7880.000000	74.726	-153.0929
8000.000000	75.689	-159.4645
8120.000000	76.292	-169.2632
8250.000000	76.258	178.1932
8380.000000	75.509	167.3556
8500.000000	74.448	160.9626
8620.000000	73.312	157.9917
8750.000000	72.195	157.5959
8850.000000	71.484	158.5673
9000.000000	70.701	161.0750
9120.000000	70.309	163.3141
9250.000000	70.066	165.4395
9380.000000	69.954	166.9282
9500.000000	69.912	167.6884
9620.000000	69.892	167.9785
9750.000000	69.883	167.9257
9880.000000	69.892	167.5961
10000.000000	69.927	167.0170
10150.000000	70.001	165.5322
10300.000000	70.016	163.3130
10440.000000	70.020	160.8115
10600.000000	69.948	156.9993
10750.000000	69.726	152.8133
10900.000000	69.326	148.5463
11060.000000	68.720	144.5038
11200.000000	68.079	141.7863
11380.000000	67.221	139.5331
11500.000000	66.683	138.4712
11720.000000	65.757	136.8195
11800.000000	65.447	136.1653
12060.000000	64.076	133.4544
12200.000000	63.448	134.5791
12410.000000	62.951	132.6079
12500.000000	62.619	130.3583
12650.000000	61.781	126.2289
12800.000000	60.614	122.6817
13150.000000	57.066	120.4290
13200.000000	56.524	120.8747
13400.000000	54.391	124.4095
13600.000000	52.369	130.2152
13800.000000	50.509	137.7113
14000.000000	48.856	146.7048
14300.000000	46.766	161.0725
14500.000000	45.552	171.4349
14750.000000	44.338	-174.8654
15000.000000	43.370	-160.8172
15250.000000	42.666	-146.4486
15500.000000	42.316	-131.5305
15750.000000	42.342	-116.7845
16000.000000	42.691	-103.5179
16250.000000	43.189	-91.0824
16500.000000	43.925	-78.6549
16750.000000	44.978	-67.3685
17000.000000	46.847	-56.8905
17250.000000	48.504	-54.3113
17500.000000	49.706	-53.1337
17750.000000	50.662	-53.1551
18000.000000	51.496	-52.9583
18250.000000	52.438	-53.9815
18500.000000	53.131	-58.0259
18750.000000	53.308	-63.0658
19000.000000	53.135	-66.9684
19250.000000	52.940	-69.8205
19500.000000	52.841	-73.3660
19750.000000	52.781	-79.5895
