* Measurement data measured by REW V5.20.13
* Source: C:\Users\marcu\OneDrive\Desktop\audio_db\SGOR Venus Foam R.txt
* Format: Comma/Tab/Space delimited data
* Dated: Jun 1, 2023 6:27:25 PM
* REW Settings:
*  C-weighting compensation: Off
*  Target level: 75.0 dB
* Note: ; Measurement imported from C:\Users\marcu\OneDrive\Desktop\audio_db\SGOR Venus Foam R.txt Format: Comma/Tab/Space delimited data 54613 values loaded, 0 Hz to 20,000 Hz 
* Measurement: SGOR Venus Foam R
* Smoothing: None
* Frequency Step: 1/48 octave
* Start Frequency: 1.000 Hz
*
* Freq(Hz)	SPL(dB)	Phase(degrees)
1.000000	64.065	-65.1211
1.015000	63.878	-66.0378
1.030000	63.683	-66.9438
1.044000	63.492	-67.7788
1.060000	63.264	-68.7198
1.075000	63.039	-69.5881
1.090000	62.804	-70.4422
1.106000	62.541	-71.3643
1.120000	62.294	-72.3297
1.138000	61.957	-73.7977
1.150000	61.720	-74.8963
1.172000	61.264	-77.1055
1.180000	61.092	-77.9575
1.206000	60.512	-80.8372
1.220000	60.188	-82.4207
1.241000	59.691	-84.7771
1.250000	59.474	-85.7635
1.265000	59.109	-87.3539
1.280000	58.742	-88.8530
1.315000	57.878	-91.8380
1.320000	57.754	-92.1906
1.340000	57.263	-93.3747
1.360000	56.778	-94.1471
1.380000	56.303	-94.4412
1.400000	55.839	-94.1907
1.430000	55.174	-92.6483
1.450000	54.756	-90.7452
1.475000	54.258	-87.2169
1.500000	53.729	-81.9899
1.525000	53.164	-75.1986
1.550000	52.576	-67.1037
1.575000	51.980	-57.9660
1.600000	51.387	-48.0463
1.625000	50.810	-37.6054
1.650000	50.265	-26.9040
1.675000	49.762	-16.2029
1.700000	49.316	-5.7629
1.725000	48.939	4.1553
1.750000	48.645	13.2908
1.775000	48.447	21.3830
1.800000	48.357	28.1710
1.825000	48.390	33.3940
1.850000	48.568	37.0235
1.875000	48.909	39.5445
1.900000	49.393	41.0918
1.925000	49.997	41.7799
1.950000	50.700	41.7234
1.975000	51.480	41.0371
2.000000	52.316	39.8355
2.030000	53.360	37.8748
2.060000	54.415	35.5353
2.090000	55.441	33.0150
2.120000	56.403	30.5120
2.140000	56.989	28.9508
2.180000	57.978	26.3503
2.200000	58.360	25.4246
2.240000	58.984	23.6446
2.270000	59.372	22.1479
2.300000	59.701	20.5361
2.330000	59.977	18.8303
2.360000	60.210	17.0515
2.400000	60.465	14.6028
2.430000	60.626	12.7358
2.470000	60.813	10.2460
2.500000	60.943	8.4057
2.540000	61.118	6.0281
2.580000	61.307	3.7663
2.620000	61.469	1.5107
2.650000	61.569	-0.1900
2.690000	61.677	-2.4586
2.720000	61.740	-4.1535
2.760000	61.803	-6.3939
2.800000	61.847	-8.5997
2.850000	61.880	-11.2879
2.900000	61.895	-13.8747
2.950000	61.898	-16.3459
3.000000	61.870	-18.7799
3.040000	61.827	-20.6965
3.070000	61.784	-22.1050
3.110000	61.714	-23.9306
3.150000	61.633	-25.6809
3.200000	61.521	-27.7369
3.250000	61.401	-29.6152
3.300000	61.280	-31.2830
3.350000	61.140	-32.7742
3.400000	60.975	-34.1203
3.450000	60.796	-35.3103
3.500000	60.613	-36.3329
3.550000	60.439	-37.1769
3.600000	60.283	-37.8311
3.650000	60.157	-38.2843
3.700000	60.059	-38.4846
3.750000	59.967	-38.3699
3.820000	59.860	-37.8214
3.870000	59.809	-37.2597
3.950000	59.788	-36.2845
4.000000	59.826	-35.7499
4.060000	59.933	-35.2497
4.120000	60.113	-34.6648
4.180000	60.349	-34.0384
4.250000	60.674	-33.3817
4.310000	60.976	-32.9909
4.370000	61.283	-32.8591
4.440000	61.640	-33.1194
4.500000	61.977	-33.6285
4.550000	62.272	-34.2163
4.620000	62.692	-35.2379
4.680000	63.043	-36.2503
4.750000	63.426	-37.5289
4.820000	63.776	-38.9413
4.870000	64.017	-40.0912
4.940000	64.341	-41.8358
5.000000	64.603	-43.3983
5.080000	64.928	-45.4810
5.150000	65.185	-47.2248
5.220000	65.415	-48.9903
5.300000	65.649	-51.0326
5.380000	65.858	-53.0289
5.450000	66.025	-54.6788
5.520000	66.179	-56.1941
5.600000	66.330	-57.8212
5.700000	66.489	-59.6997
5.800000	66.634	-61.3642
5.900000	66.780	-62.7689
6.000000	66.913	-63.8945
6.080000	67.015	-64.6351
6.150000	67.110	-65.1981
6.220000	67.215	-65.7075
6.300000	67.348	-66.1929
6.400000	67.527	-66.6257
6.500000	67.719	-66.9809
6.600000	67.927	-67.3825
6.700000	68.155	-67.8118
6.800000	68.400	-68.2422
6.900000	68.649	-68.7334
7.000000	68.893	-69.3407
7.100000	69.140	-70.0551
7.200000	69.384	-70.8468
7.300000	69.615	-71.6903
7.400000	69.828	-72.5859
7.500000	70.028	-73.5547
7.620000	70.249	-74.7420
7.750000	70.462	-75.9762
7.880000	70.645	-77.1965
8.000000	70.795	-78.2678
8.120000	70.935	-79.2340
8.250000	71.067	-80.1800
8.380000	71.191	-81.0340
8.500000	71.307	-81.7367
8.620000	71.420	-82.3480
8.750000	71.543	-82.9625
8.850000	71.642	-83.4284
9.000000	71.796	-84.0822
9.120000	71.922	-84.6130
9.250000	72.060	-85.2334
9.380000	72.200	-85.8815
9.500000	72.326	-86.5119
9.620000	72.448	-87.1831
9.750000	72.577	-87.9504
9.880000	72.691	-88.7360
10.000000	72.776	-89.4737
10.150000	72.863	-90.4140
10.300000	72.936	-91.3407
10.440000	72.992	-92.1929
10.600000	73.047	-93.1504
10.750000	73.097	-94.0236
10.900000	73.144	-94.8787
11.060000	73.194	-95.7821
11.200000	73.236	-96.5636
11.380000	73.289	-97.5646
11.500000	73.323	-98.2333
11.720000	73.383	-99.4521
11.800000	73.404	-99.8918
12.060000	73.468	-101.3042
12.200000	73.500	-102.0427
12.410000	73.549	-103.1235
12.500000	73.577	-103.5758
12.650000	73.632	-104.3134
12.800000	73.693	-105.0399
13.150000	73.843	-106.7113
13.200000	73.864	-106.9505
13.400000	73.950	-107.9107
13.600000	74.035	-108.8728
13.800000	74.116	-109.8392
14.000000	74.192	-110.7882
14.300000	74.296	-112.1660
14.500000	74.359	-113.0330
14.750000	74.436	-114.0580
15.000000	74.512	-115.0201
15.250000	74.588	-115.9409
15.500000	74.664	-116.8411
15.750000	74.738	-117.7305
16.000000	74.809	-118.6166
16.250000	74.879	-119.4879
16.500000	74.944	-120.3373
16.750000	75.003	-121.1531
17.000000	75.057	-121.9336
17.250000	75.108	-122.6829
17.500000	75.157	-123.4077
17.750000	75.204	-124.1216
18.000000	75.250	-124.8309
18.250000	75.295	-125.5422
18.500000	75.338	-126.2600
18.750000	75.377	-126.9837
19.000000	75.413	-127.7132
19.250000	75.445	-128.4430
19.500000	75.473	-129.1647
19.750000	75.498	-129.8714
20.000000	75.521	-130.5510
20.299999	75.551	-131.3290
20.600000	75.585	-132.0739
20.900000	75.625	-132.8060
21.200001	75.670	-133.5539
21.400000	75.701	-134.0720
21.799999	75.759	-135.1442
22.000000	75.783	-135.6844
22.400000	75.822	-136.7271
22.700001	75.847	-137.4450
23.000000	75.872	-138.1030
23.299999	75.902	-138.7262
23.600000	75.934	-139.3423
24.000000	75.977	-140.1774
24.299999	76.003	-140.8032
24.700001	76.028	-141.5912
25.000000	76.043	-142.1213
25.400000	76.069	-142.7558
25.799999	76.104	-143.3795
26.200001	76.144	-144.0751
26.500000	76.169	-144.6567
26.900000	76.187	-145.4711
27.200001	76.187	-146.0581
27.600000	76.177	-146.7507
28.000000	76.171	-147.3326
28.500000	76.180	-147.9964
29.000000	76.206	-148.7307
29.500000	76.229	-149.5762
30.000000	76.238	-150.4490
30.400000	76.237	-151.0967
30.700001	76.237	-151.5400
31.100000	76.241	-152.0926
31.500000	76.250	-152.6337
32.000000	76.265	-153.3276
32.500000	76.277	-154.0314
33.000000	76.286	-154.7103
33.500000	76.292	-155.3536
34.000000	76.297	-155.9732
34.500000	76.303	-156.5716
35.000000	76.306	-157.1406
35.500000	76.313	-157.6911
36.000000	76.322	-158.2578
36.500000	76.329	-158.8575
37.000000	76.327	-159.4601
37.500000	76.319	-160.0173
38.200001	76.310	-160.7060
38.700001	76.311	-161.1838
39.500000	76.313	-161.9984
40.000000	76.310	-162.5099
40.599998	76.303	-163.0880
41.200001	76.296	-163.6343
41.799999	76.291	-164.1691
42.500000	76.284	-164.7774
43.099998	76.279	-165.2872
43.700001	76.275	-165.8061
44.400002	76.267	-166.4171
45.000000	76.259	-166.9178
45.500000	76.253	-167.3219
46.200001	76.247	-167.9021
46.799999	76.239	-168.4129
47.500000	76.224	-168.9741
48.200001	76.208	-169.4793
48.700001	76.201	-169.8284
49.400002	76.193	-170.3340
50.000000	76.184	-170.7796
50.799999	76.169	-171.3500
51.500000	76.157	-171.8203
52.200001	76.147	-172.2961
53.000000	76.135	-172.8454
53.799999	76.122	-173.3755
54.500000	76.109	-173.8355
55.200001	76.094	-174.2770
56.000000	76.077	-174.7305
57.000000	76.062	-175.2941
58.000000	76.042	-175.8625
59.000000	76.023	-176.4178
60.000000	75.998	-177.0002
60.799999	75.976	-177.4145
61.500000	75.961	-177.7655
62.200001	75.949	-178.1446
63.000000	75.932	-178.5779
64.000000	75.909	-179.0928
65.000000	75.886	-179.5966
66.000000	75.861	179.9279
67.000000	75.836	179.4566
68.000000	75.808	179.0114
69.000000	75.782	178.5786
70.000000	75.755	178.1354
71.000000	75.725	177.7053
72.000000	75.697	177.2950
73.000000	75.670	176.8796
74.000000	75.643	176.4728
75.000000	75.621	176.0567
76.199997	75.587	175.5442
77.500000	75.553	175.0500
78.800003	75.522	174.5473
80.000000	75.488	174.1044
81.199997	75.453	173.7086
82.500000	75.417	173.3022
83.800003	75.380	172.8553
85.000000	75.339	172.4937
86.199997	75.310	172.1378
87.500000	75.279	171.7220
88.500000	75.257	171.3838
90.000000	75.211	170.8806
91.199997	75.177	170.5529
92.500000	75.138	170.1878
93.800003	75.100	169.8505
95.000000	75.066	169.5352
96.199997	75.032	169.2113
97.500000	74.995	168.8599
98.800003	74.958	168.5162
100.000000	74.924	168.2077
101.500000	74.880	167.8460
103.000000	74.838	167.4944
104.400002	74.799	167.1847
106.000000	74.756	166.8220
107.500000	74.713	166.4844
109.000000	74.670	166.1594
110.599998	74.624	165.8236
112.000000	74.585	165.5456
113.800003	74.534	165.1852
115.000000	74.498	164.9640
117.199997	74.436	164.5660
118.000000	74.414	164.4252
120.599998	74.344	163.9633
122.000000	74.304	163.7145
124.099998	74.242	163.3618
125.000000	74.218	163.2252
126.500000	74.182	162.9895
128.000000	74.147	162.7634
131.500000	74.065	162.2661
132.000000	74.053	162.1982
134.000000	74.006	161.9349
136.000000	73.957	161.6676
138.000000	73.908	161.4083
140.000000	73.863	161.1711
143.000000	73.794	160.8241
145.000000	73.745	160.6117
147.500000	73.686	160.3356
150.000000	73.628	160.0783
152.500000	73.574	159.8253
155.000000	73.518	159.5986
157.500000	73.461	159.3816
160.000000	73.404	159.1720
162.500000	73.339	158.9622
165.000000	73.267	158.7839
167.500000	73.198	158.6075
170.000000	73.128	158.4444
172.500000	73.062	158.2966
175.000000	72.994	158.1460
177.500000	72.924	157.9890
180.000000	72.857	157.8636
182.500000	72.795	157.7421
185.000000	72.730	157.6252
187.500000	72.664	157.5148
190.000000	72.601	157.4166
192.500000	72.539	157.3243
195.000000	72.477	157.2426
197.500000	72.413	157.1642
200.000000	72.354	157.0921
203.000000	72.285	157.0051
206.000000	72.218	156.9402
209.000000	72.151	156.8813
212.000000	72.087	156.8247
214.000000	72.045	156.8049
218.000000	71.964	156.7847
220.000000	71.922	156.7618
224.000000	71.839	156.7141
227.000000	71.777	156.6888
230.000000	71.717	156.6843
233.000000	71.658	156.6917
236.000000	71.602	156.6950
240.000000	71.525	156.7152
243.000000	71.469	156.7319
247.000000	71.394	156.7643
250.000000	71.336	156.8059
254.000000	71.262	156.8605
258.000000	71.193	156.9340
262.000000	71.126	157.0075
265.000000	71.077	157.0653
269.000000	71.010	157.1488
272.000000	70.958	157.2117
276.000000	70.892	157.3185
280.000000	70.828	157.4311
285.000000	70.754	157.5546
290.000000	70.679	157.7087
295.000000	70.603	157.8816
300.000000	70.532	158.0447
304.000000	70.474	158.1856
307.000000	70.433	158.2874
311.000000	70.380	158.4378
315.000000	70.327	158.5974
320.000000	70.260	158.7875
325.000000	70.194	158.9741
330.000000	70.132	159.1534
335.000000	70.071	159.3457
340.000000	70.008	159.5500
345.000000	69.946	159.7666
350.000000	69.885	159.9820
355.000000	69.826	160.1912
360.000000	69.766	160.4037
365.000000	69.708	160.6387
370.000000	69.654	160.8806
375.000000	69.600	161.1222
382.000000	69.525	161.4680
387.000000	69.474	161.7253
395.000000	69.396	162.1286
400.000000	69.347	162.3793
406.000000	69.293	162.6760
412.000000	69.240	162.9897
418.000000	69.184	163.3024
425.000000	69.122	163.6549
431.000000	69.073	163.9608
437.000000	69.024	164.2670
444.000000	68.961	164.6331
450.000000	68.912	164.9700
455.000000	68.873	165.2538
462.000000	68.818	165.6453
468.000000	68.773	165.9755
475.000000	68.719	166.3506
482.000000	68.668	166.7538
487.000000	68.631	167.0546
494.000000	68.583	167.4628
500.000000	68.542	167.8222
508.000000	68.493	168.2911
515.000000	68.449	168.6991
522.000000	68.410	169.1000
530.000000	68.367	169.6054
538.000000	68.324	170.1111
545.000000	68.286	170.5197
552.000000	68.249	170.9308
560.000000	68.211	171.4332
570.000000	68.165	172.0650
580.000000	68.122	172.6760
590.000000	68.078	173.3003
600.000000	68.038	173.9297
608.000000	68.009	174.4471
615.000000	67.984	174.8876
622.000000	67.956	175.3255
630.000000	67.929	175.8292
640.000000	67.901	176.4803
650.000000	67.874	177.1288
660.000000	67.848	177.7719
670.000000	67.824	178.4003
680.000000	67.806	179.0376
690.000000	67.791	179.6799
700.000000	67.775	-179.7073
710.000000	67.760	-179.1147
720.000000	67.749	-178.5285
730.000000	67.735	-177.9500
740.000000	67.719	-177.4327
750.000000	67.700	-176.9766
762.000000	67.663	-176.4597
775.000000	67.569	-176.0751
788.000000	67.365	-174.7841
800.000000	67.341	-172.5153
812.000000	67.475	-170.8674
825.000000	67.620	-169.8016
838.000000	67.718	-168.9498
850.000000	67.762	-168.1813
862.000000	67.767	-167.4506
875.000000	67.769	-166.6125
885.000000	67.793	-165.9012
900.000000	67.847	-164.8240
912.000000	67.898	-163.9941
925.000000	67.959	-163.1416
938.000000	68.024	-162.3296
950.000000	68.087	-161.6131
962.000000	68.151	-160.9332
975.000000	68.227	-160.2424
988.000000	68.308	-159.5842
1000.000000	68.383	-159.0028
1015.000000	68.491	-158.3034
1030.000000	68.603	-157.6719
1044.000000	68.711	-157.1122
1060.000000	68.834	-156.5424
1075.000000	68.949	-156.0468
1090.000000	69.064	-155.5913
1106.000000	69.182	-155.1718
1120.000000	69.286	-154.8304
1138.000000	69.415	-154.4471
1150.000000	69.501	-154.2135
1172.000000	69.651	-153.8582
1180.000000	69.704	-153.7384
1206.000000	69.870	-153.3920
1220.000000	69.954	-153.2374
1241.000000	70.074	-153.0195
1250.000000	70.118	-152.9419
1265.000000	70.179	-152.8237
1280.000000	70.230	-152.7028
1315.000000	70.338	-152.4645
1320.000000	70.352	-152.4309
1340.000000	70.405	-152.2943
1360.000000	70.457	-152.1699
1380.000000	70.509	-152.0547
1400.000000	70.558	-151.9351
1430.000000	70.623	-151.7665
1450.000000	70.661	-151.6268
1475.000000	70.708	-151.4545
1500.000000	70.756	-151.3047
1525.000000	70.804	-151.1553
1550.000000	70.849	-150.9863
1575.000000	70.888	-150.8083
1600.000000	70.938	-150.6176
1625.000000	71.014	-150.4552
1650.000000	71.095	-150.2984
1675.000000	71.173	-150.1234
1700.000000	71.250	-149.9364
1725.000000	71.328	-149.7774
1750.000000	71.408	-149.6266
1775.000000	71.486	-149.4628
1800.000000	71.563	-149.2975
1825.000000	71.639	-149.1499
1850.000000	71.718	-149.0092
1875.000000	71.796	-148.8716
1900.000000	71.874	-148.7388
1925.000000	71.953	-148.6201
1950.000000	72.032	-148.5100
1975.000000	72.109	-148.4010
2000.000000	72.185	-148.3017
2030.000000	72.274	-148.2093
2060.000000	72.361	-148.1380
2090.000000	72.446	-148.0630
2120.000000	72.530	-148.0141
2140.000000	72.588	-147.9982
2180.000000	72.703	-148.0037
2200.000000	72.760	-148.0173
2240.000000	72.873	-148.0914
2270.000000	72.952	-148.1673
2300.000000	73.029	-148.2561
2330.000000	73.101	-148.3753
2360.000000	73.173	-148.5148
2400.000000	73.266	-148.7308
2430.000000	73.327	-148.8987
2470.000000	73.402	-149.1228
2500.000000	73.452	-149.2864
2540.000000	73.516	-149.5000
2580.000000	73.573	-149.6976
2620.000000	73.628	-149.8689
2650.000000	73.668	-149.9943
2690.000000	73.721	-150.1502
2720.000000	73.758	-150.2527
2760.000000	73.805	-150.3705
2800.000000	73.850	-150.4784
2850.000000	73.907	-150.5946
2900.000000	73.964	-150.6950
2950.000000	74.020	-150.7849
3000.000000	74.077	-150.8511
3040.000000	74.123	-150.8969
3070.000000	74.158	-150.9261
3110.000000	74.208	-150.9669
3150.000000	74.260	-151.0050
3200.000000	74.321	-151.0498
3250.000000	74.381	-151.0779
3300.000000	74.445	-151.1072
3350.000000	74.514	-151.1400
3400.000000	74.584	-151.1792
3450.000000	74.654	-151.2209
3500.000000	74.727	-151.2682
3550.000000	74.802	-151.3245
3600.000000	74.880	-151.3902
3650.000000	74.961	-151.4786
3700.000000	75.046	-151.5869
3750.000000	75.133	-151.7161
3820.000000	75.259	-151.9416
3870.000000	75.349	-152.1458
3950.000000	75.496	-152.5495
4000.000000	75.591	-152.8792
4060.000000	75.701	-153.3727
4120.000000	75.807	-154.0184
4180.000000	75.894	-154.9702
4250.000000	75.800	-156.4609
4310.000000	75.638	-154.6034
4370.000000	76.048	-153.4818
4440.000000	76.315	-154.8717
4500.000000	76.439	-156.1184
4550.000000	76.519	-157.0599
4620.000000	76.613	-158.3817
4680.000000	76.677	-159.5203
4750.000000	76.732	-160.8858
4820.000000	76.764	-162.2810
4870.000000	76.774	-163.2986
4940.000000	76.766	-164.7273
5000.000000	76.735	-165.9330
5080.000000	76.652	-167.5103
5150.000000	76.551	-168.8315
5220.000000	76.427	-170.0792
5300.000000	76.255	-171.3937
5380.000000	76.055	-172.5830
5450.000000	75.851	-173.5267
5520.000000	75.613	-174.3951
5600.000000	75.268	-175.3494
5700.000000	74.492	-175.1721
5800.000000	74.214	-167.4718
5900.000000	74.916	-167.7290
6000.000000	74.755	-169.8746
6080.000000	74.543	-170.0842
6150.000000	74.367	-169.8147
6220.000000	74.212	-169.3015
6300.000000	74.069	-168.5249
6400.000000	73.975	-167.3409
6500.000000	73.931	-165.9791
6600.000000	73.918	-164.4794
6700.000000	73.937	-162.8929
6800.000000	73.997	-161.2624
6900.000000	74.098	-159.6138
7000.000000	74.236	-157.9459
7100.000000	74.422	-156.3263
7200.000000	74.658	-154.8306
7300.000000	74.939	-153.5303
7400.000000	75.260	-152.4565
7500.000000	75.622	-151.6514
7620.000000	76.108	-151.1435
7750.000000	76.689	-151.3078
7880.000000	77.319	-152.4315
8000.000000	77.889	-154.5677
8120.000000	78.342	-157.9544
8250.000000	78.700	-163.1038
8380.000000	78.858	-169.5471
8500.000000	78.764	-176.0863
8620.000000	78.428	177.5429
8750.000000	77.832	171.5776
8850.000000	77.260	167.9619
9000.000000	76.310	164.2278
9120.000000	75.539	162.5610
9250.000000	74.736	161.8368
9380.000000	73.995	161.9740
9500.000000	73.375	162.6977
9620.000000	72.832	163.8281
9750.000000	72.331	165.3826
9880.000000	71.917	167.1587
10000.000000	71.625	168.8776
10150.000000	71.408	171.0430
10300.000000	71.310	173.0616
10440.000000	71.305	174.6847
10600.000000	71.391	176.0988
10750.000000	71.546	176.8286
10900.000000	71.752	176.7757
11060.000000	71.965	175.7147
11200.000000	72.132	174.0947
11380.000000	72.254	170.7459
11500.000000	72.218	167.9236
11720.000000	71.847	162.3807
11800.000000	71.613	160.4721
12060.000000	70.554	155.6999
12200.000000	69.856	154.2984
12410.000000	68.729	154.0829
12500.000000	68.266	154.6731
12650.000000	67.534	156.0405
12800.000000	66.835	157.8199
13150.000000	65.371	163.4594
13200.000000	65.183	164.4467
13400.000000	64.507	168.7586
13600.000000	63.982	173.5313
13800.000000	63.636	178.3963
14000.000000	63.444	-177.0270
14300.000000	63.382	-170.6995
14500.000000	63.537	-166.8960
14750.000000	63.970	-163.1088
15000.000000	64.703	-161.0573
15250.000000	65.721	-162.0762
15500.000000	66.818	-168.2149
15750.000000	67.458	178.8398
16000.000000	66.766	162.5229
16250.000000	65.228	147.4607
16500.000000	61.209	146.1874
16750.000000	61.138	-176.6379
17000.000000	63.755	178.1138
17250.000000	63.814	167.8864
17500.000000	63.382	163.0970
17750.000000	62.986	160.1970
18000.000000	62.627	157.3668
18250.000000	62.222	153.8996
18500.000000	61.647	149.6641
18750.000000	60.808	145.0836
19000.000000	59.682	140.8370
19250.000000	58.317	137.4140
19500.000000	56.784	134.8903
19750.000000	55.111	132.8023
