* Measurement data measured by REW V5.20.13
* Source: EXCL: Microphone (USB Sound Device        ), MICROPHONE (Master Volume), L, volume: 0.250
* Format: 256k Log Swept Sine, 1 sweep at -6.0 dBFS with no timing reference
* Dated: Sep 16, 2023 6:46:49 PM
* REW Settings:
*  C-weighting compensation: Off
*  Target level: 75.0 dB
* Note: ; 
* Measurement: Fat Earth Foam L
* Smoothing: None
* Frequency Step: 1/48 octave
* Start Frequency: 1.000 Hz
*
* Freq(Hz)	SPL(dB)	Phase(degrees)
1.000000	60.081	131.9946
1.015000	59.947	131.1840
1.030000	59.809	130.3615
1.044000	59.677	129.5822
1.060000	59.523	128.6768
1.075000	59.375	127.8129
1.090000	59.223	126.9334
1.106000	59.056	125.9821
1.120000	58.907	125.1649
1.138000	58.710	124.1376
1.150000	58.577	123.4641
1.172000	58.326	122.2448
1.180000	58.233	121.8042
1.206000	57.924	120.3726
1.220000	57.754	119.5961
1.241000	57.494	118.4148
1.250000	57.381	117.8999
1.265000	57.190	117.0269
1.280000	56.996	116.1316
1.315000	56.533	113.9323
1.320000	56.465	113.6032
1.340000	56.193	112.2433
1.360000	55.916	110.8062
1.380000	55.635	109.2818
1.400000	55.350	107.6601
1.430000	54.916	105.0232
1.450000	54.622	103.1144
1.475000	54.246	100.5453
1.500000	53.832	97.8029
1.525000	53.382	94.9042
1.550000	52.905	91.8589
1.575000	52.407	88.6766
1.600000	51.899	85.3669
1.625000	51.388	81.9395
1.650000	50.884	78.4038
1.675000	50.394	74.7696
1.700000	49.928	71.0464
1.725000	49.494	67.2439
1.750000	49.100	63.3716
1.775000	48.754	59.4391
1.800000	48.467	55.4561
1.825000	48.245	51.4321
1.850000	48.093	47.2832
1.875000	47.997	42.8220
1.900000	47.952	38.0983
1.925000	47.953	33.1717
1.950000	47.995	28.1020
1.975000	48.072	22.9489
2.000000	48.180	17.7722
2.030000	48.342	11.6130
2.060000	48.532	5.6090
2.090000	48.740	-0.1367
2.120000	48.958	-5.5207
2.140000	49.104	-8.8582
2.180000	49.387	-14.7911
2.200000	49.518	-17.3263
2.240000	49.807	-21.6889
2.270000	50.057	-24.4542
2.300000	50.329	-26.8353
2.330000	50.619	-28.8767
2.360000	50.921	-30.6235
2.400000	51.333	-32.5714
2.430000	51.643	-33.8047
2.470000	52.047	-35.2307
2.500000	52.336	-36.1945
2.540000	52.694	-37.4238
2.580000	53.010	-38.1663
2.620000	53.298	-38.2846
2.650000	53.501	-38.4412
2.690000	53.756	-38.7149
2.720000	53.939	-38.9515
2.760000	54.176	-39.2830
2.800000	54.407	-39.6039
2.850000	54.697	-39.9416
2.900000	54.994	-40.1507
2.950000	55.305	-40.1266
3.000000	55.620	-39.8284
3.040000	55.871	-39.4703
3.070000	56.060	-39.1507
3.110000	56.312	-38.6794
3.150000	56.565	-38.1828
3.200000	56.883	-37.5698
3.250000	57.203	-37.0174
3.300000	57.526	-36.5808
3.350000	57.856	-36.2127
3.400000	58.193	-35.8611
3.450000	58.532	-35.5370
3.500000	58.872	-35.2514
3.550000	59.209	-35.0154
3.600000	59.540	-34.8398
3.650000	59.861	-34.7357
3.700000	60.173	-34.7125
3.750000	60.482	-34.7657
3.820000	60.906	-34.9482
3.870000	61.201	-35.1410
3.950000	61.656	-35.5275
4.000000	61.928	-35.8010
4.060000	62.240	-36.1543
4.120000	62.538	-36.5738
4.180000	62.822	-37.0489
4.250000	63.138	-37.6479
4.310000	63.397	-38.1775
4.370000	63.644	-38.7018
4.440000	63.919	-39.2989
4.500000	64.139	-39.8285
4.550000	64.314	-40.2775
4.620000	64.547	-40.9061
4.680000	64.738	-41.4337
4.750000	64.954	-42.0219
4.820000	65.160	-42.5776
4.870000	65.300	-42.9632
4.940000	65.486	-43.4868
5.000000	65.640	-43.9198
5.080000	65.840	-44.4730
5.150000	66.013	-44.9328
5.220000	66.182	-45.3625
5.300000	66.367	-45.8239
5.380000	66.549	-46.2664
5.450000	66.707	-46.6486
5.520000	66.866	-47.0332
5.600000	67.046	-47.4578
5.700000	67.269	-47.9765
5.800000	67.491	-48.5079
5.900000	67.711	-49.0762
6.000000	67.930	-49.6675
6.080000	68.104	-50.1581
6.150000	68.255	-50.6040
6.220000	68.402	-51.0689
6.300000	68.568	-51.6262
6.400000	68.772	-52.3575
6.500000	68.971	-53.1178
6.600000	69.163	-53.8972
6.700000	69.347	-54.7029
6.800000	69.525	-55.5330
6.900000	69.697	-56.3708
7.000000	69.863	-57.2028
7.100000	70.021	-58.0399
7.200000	70.173	-58.8765
7.300000	70.322	-59.7015
7.400000	70.466	-60.5089
7.500000	70.606	-61.3044
7.620000	70.770	-62.2428
7.750000	70.946	-63.2369
7.880000	71.120	-64.2049
8.000000	71.278	-65.0848
8.120000	71.436	-65.9596
8.250000	71.607	-66.8957
8.380000	71.778	-67.8290
8.500000	71.933	-68.6961
8.620000	72.089	-69.5654
8.750000	72.254	-70.5094
8.850000	72.379	-71.2382
9.000000	72.564	-72.3372
9.120000	72.707	-73.2130
9.250000	72.859	-74.1538
9.380000	73.005	-75.0894
9.500000	73.137	-75.9390
9.620000	73.268	-76.7707
9.750000	73.406	-77.6552
9.880000	73.533	-78.5174
10.000000	73.635	-79.2907
10.150000	73.747	-80.2298
10.300000	73.852	-81.1418
10.440000	73.943	-81.9666
10.600000	74.043	-82.8854
10.750000	74.136	-83.7286
10.900000	74.228	-84.5535
11.060000	74.324	-85.4211
11.200000	74.405	-86.1692
11.380000	74.505	-87.1169
11.500000	74.570	-87.7410
11.720000	74.683	-88.8659
11.800000	74.722	-89.2682
12.060000	74.842	-90.5508
12.200000	74.900	-91.2237
12.410000	74.985	-92.2105
12.500000	75.026	-92.6255
12.650000	75.102	-93.3061
12.800000	75.180	-93.9751
13.150000	75.349	-95.4961
13.200000	75.372	-95.7097
13.400000	75.462	-96.5546
13.600000	75.548	-97.3875
13.800000	75.629	-98.2092
14.000000	75.707	-99.0214
14.300000	75.816	-100.2231
14.500000	75.885	-101.0148
14.750000	75.967	-101.9957
15.000000	76.045	-102.9676
15.250000	76.118	-103.9313
15.500000	76.187	-104.8848
15.750000	76.253	-105.8266
16.000000	76.317	-106.7540
16.250000	76.385	-107.6658
16.500000	76.454	-108.5623
16.750000	76.522	-109.4446
17.000000	76.588	-110.3157
17.250000	76.652	-111.1763
17.500000	76.715	-112.0275
17.750000	76.776	-112.8669
18.000000	76.834	-113.6915
18.250000	76.890	-114.4984
18.500000	76.944	-115.2832
18.750000	76.996	-116.0457
19.000000	77.046	-116.7854
19.250000	77.096	-117.5051
19.500000	77.144	-118.2075
19.750000	77.191	-118.8949
20.000000	77.236	-119.5701
20.299999	77.290	-120.3644
20.600000	77.340	-121.1405
20.900000	77.387	-121.8967
21.200001	77.430	-122.6312
21.400000	77.457	-123.1088
21.799999	77.508	-124.0383
22.000000	77.533	-124.4928
22.400000	77.579	-125.3876
22.700001	77.612	-126.0516
23.000000	77.643	-126.7122
23.299999	77.671	-127.3685
23.600000	77.697	-128.0178
24.000000	77.729	-128.8673
24.299999	77.751	-129.4902
24.700001	77.779	-130.3040
25.000000	77.801	-130.9060
25.400000	77.830	-131.7032
25.799999	77.858	-132.4936
26.200001	77.883	-133.2687
26.500000	77.901	-133.8335
26.900000	77.924	-134.5602
27.200001	77.942	-135.0876
27.600000	77.966	-135.7747
28.000000	77.990	-136.4517
28.500000	78.018	-137.2846
29.000000	78.041	-138.0893
29.500000	78.060	-138.8540
30.000000	78.078	-139.5842
30.400000	78.093	-140.1550
30.700001	78.103	-140.5796
31.100000	78.115	-141.1422
31.500000	78.125	-141.6980
32.000000	78.135	-142.3790
32.500000	78.143	-143.0446
33.000000	78.151	-143.6991
33.500000	78.158	-144.3449
34.000000	78.164	-144.9796
34.500000	78.169	-145.6002
35.000000	78.175	-146.2068
35.500000	78.181	-146.8013
36.000000	78.186	-147.3840
36.500000	78.191	-147.9532
37.000000	78.196	-148.5076
37.500000	78.199	-149.0476
38.200001	78.204	-149.7815
38.700001	78.206	-150.2901
39.500000	78.208	-151.0762
40.000000	78.209	-151.5552
40.599998	78.212	-152.1266
41.200001	78.213	-152.6956
41.799999	78.212	-153.2483
42.500000	78.210	-153.8573
43.099998	78.212	-154.3649
43.700001	78.214	-154.8845
44.400002	78.213	-155.4977
45.000000	78.209	-155.9982
45.500000	78.206	-156.3917
46.200001	78.205	-156.9306
46.799999	78.205	-157.3975
47.500000	78.202	-157.9357
48.200001	78.199	-158.4551
48.700001	78.197	-158.8201
49.400002	78.194	-159.3278
50.000000	78.190	-159.7518
50.799999	78.186	-160.2937
51.500000	78.183	-160.7579
52.200001	78.180	-161.2182
53.000000	78.176	-161.7342
53.799999	78.170	-162.2398
54.500000	78.165	-162.6703
55.200001	78.160	-163.0925
56.000000	78.154	-163.5757
57.000000	78.145	-164.1512
58.000000	78.142	-164.7213
59.000000	78.133	-165.3235
60.000000	78.120	-165.8461
60.799999	78.117	-166.2488
61.500000	78.113	-166.6238
62.200001	78.105	-166.9875
63.000000	78.097	-167.3744
64.000000	78.087	-167.8572
65.000000	78.076	-168.3567
66.000000	78.062	-168.8368
67.000000	78.051	-169.2943
68.000000	78.041	-169.7597
69.000000	78.028	-170.2172
70.000000	78.016	-170.6543
71.000000	78.005	-171.0848
72.000000	77.991	-171.5030
73.000000	77.980	-171.9029
74.000000	77.969	-172.3154
75.000000	77.955	-172.7186
76.199997	77.940	-173.1823
77.500000	77.925	-173.6736
78.800003	77.910	-174.1807
80.000000	77.890	-174.6229
81.199997	77.878	-175.0436
82.500000	77.862	-175.5220
83.800003	77.847	-175.9698
85.000000	77.832	-176.3872
86.199997	77.820	-176.7879
87.500000	77.803	-177.2352
88.500000	77.790	-177.5489
90.000000	77.773	-178.0284
91.199997	77.758	-178.3938
92.500000	77.745	-178.8015
93.800003	77.726	-179.2032
95.000000	77.712	-179.5518
96.199997	77.696	-179.9152
97.500000	77.680	179.7058
98.800003	77.662	179.3392
100.000000	77.649	179.0039
101.500000	77.629	178.5829
103.000000	77.612	178.1705
104.400002	77.591	177.7983
106.000000	77.574	177.3902
107.500000	77.555	176.9944
109.000000	77.537	176.6186
110.599998	77.516	176.2043
112.000000	77.499	175.8757
113.800003	77.474	175.4391
115.000000	77.461	175.1573
117.199997	77.430	174.6358
118.000000	77.420	174.4577
120.599998	77.387	173.8475
122.000000	77.368	173.5328
124.099998	77.340	173.0974
125.000000	77.331	172.8955
126.500000	77.317	172.5645
128.000000	77.304	172.2518
131.500000	77.269	171.5317
132.000000	77.264	171.4328
134.000000	77.245	171.0317
136.000000	77.225	170.6385
138.000000	77.206	170.2379
140.000000	77.186	169.8623
143.000000	77.155	169.2910
145.000000	77.134	168.9504
147.500000	77.108	168.4943
150.000000	77.084	168.0574
152.500000	77.057	167.6115
155.000000	77.029	167.2009
157.500000	77.003	166.7683
160.000000	76.975	166.3575
162.500000	76.935	165.9730
165.000000	76.893	165.5804
167.500000	76.853	165.2066
170.000000	76.812	164.8306
172.500000	76.771	164.4430
175.000000	76.729	164.0854
177.500000	76.687	163.7256
180.000000	76.646	163.3705
182.500000	76.605	163.0396
185.000000	76.565	162.7098
187.500000	76.521	162.3571
190.000000	76.479	162.0486
192.500000	76.436	161.7291
195.000000	76.398	161.4077
197.500000	76.355	161.0934
200.000000	76.311	160.8007
203.000000	76.269	160.4432
206.000000	76.227	160.0834
209.000000	76.181	159.7440
212.000000	76.137	159.4200
214.000000	76.109	159.2044
218.000000	76.054	158.7708
220.000000	76.020	158.5629
224.000000	75.962	158.1536
227.000000	75.918	157.8745
230.000000	75.875	157.5697
233.000000	75.831	157.2737
236.000000	75.785	156.9714
240.000000	75.727	156.6234
243.000000	75.683	156.3710
247.000000	75.625	156.0250
250.000000	75.579	155.7549
254.000000	75.521	155.4349
258.000000	75.464	155.1113
262.000000	75.403	154.8111
265.000000	75.363	154.5630
269.000000	75.303	154.2763
272.000000	75.259	154.0779
276.000000	75.202	153.7906
280.000000	75.144	153.5428
285.000000	75.074	153.2019
290.000000	74.999	152.8792
295.000000	74.926	152.5767
300.000000	74.853	152.3263
304.000000	74.796	152.0866
307.000000	74.753	151.9319
311.000000	74.696	151.7157
315.000000	74.638	151.5276
320.000000	74.561	151.2775
325.000000	74.492	151.0349
330.000000	74.421	150.8104
335.000000	74.347	150.6420
340.000000	74.275	150.4497
345.000000	74.204	150.2485
350.000000	74.132	150.0596
355.000000	74.064	149.8876
360.000000	73.988	149.7266
365.000000	73.918	149.6085
370.000000	73.848	149.4553
375.000000	73.778	149.3046
382.000000	73.682	149.1219
387.000000	73.607	149.0236
395.000000	73.496	148.8469
400.000000	73.430	148.7482
406.000000	73.349	148.6412
412.000000	73.267	148.5851
418.000000	73.185	148.4872
425.000000	73.092	148.3799
431.000000	73.014	148.3190
437.000000	72.935	148.2928
444.000000	72.836	148.2409
450.000000	72.755	148.2074
455.000000	72.692	148.1790
462.000000	72.603	148.1605
468.000000	72.525	148.1826
475.000000	72.433	148.1628
482.000000	72.340	148.1863
487.000000	72.278	148.2241
494.000000	72.187	148.2526
500.000000	72.114	148.2933
508.000000	72.014	148.3605
515.000000	71.927	148.4067
522.000000	71.844	148.5132
530.000000	71.752	148.6065
538.000000	71.654	148.7562
545.000000	71.571	148.8699
552.000000	71.491	148.9658
560.000000	71.393	149.1604
570.000000	71.279	149.3486
580.000000	71.161	149.6079
590.000000	71.049	149.8918
600.000000	70.941	150.1426
608.000000	70.853	150.3732
615.000000	70.768	150.6157
622.000000	70.697	150.8547
630.000000	70.606	151.1335
640.000000	70.506	151.5120
650.000000	70.408	151.8998
660.000000	70.304	152.2953
670.000000	70.211	152.7673
680.000000	70.117	153.2451
690.000000	70.030	153.6752
700.000000	69.946	154.1721
710.000000	69.854	154.6537
720.000000	69.781	155.1532
730.000000	69.709	155.6767
740.000000	69.628	156.1466
750.000000	69.560	156.6777
762.000000	69.474	157.2650
775.000000	69.384	157.9831
788.000000	69.304	158.7321
800.000000	69.226	159.3620
812.000000	69.143	160.0761
825.000000	69.051	160.7866
838.000000	68.972	161.5622
850.000000	68.901	162.3208
862.000000	68.836	163.0743
875.000000	68.771	163.9079
885.000000	68.726	164.5479
900.000000	68.666	165.4767
912.000000	68.613	166.2817
925.000000	68.566	167.0733
938.000000	68.528	167.9160
950.000000	68.487	168.6296
962.000000	68.460	169.4623
975.000000	68.424	170.2482
988.000000	68.401	171.0944
1000.000000	68.400	171.8206
1015.000000	68.377	172.6914
1030.000000	68.381	173.6615
1044.000000	68.371	174.4718
1060.000000	68.383	175.4234
1075.000000	68.395	176.3193
1090.000000	68.403	177.1194
1106.000000	68.424	178.0020
1120.000000	68.418	178.8339
1138.000000	68.463	-179.8867
1150.000000	68.506	-179.1524
1172.000000	68.573	-177.8953
1180.000000	68.595	-177.4446
1206.000000	68.640	-176.0567
1220.000000	68.675	-175.3727
1241.000000	68.724	-174.3839
1250.000000	68.755	-174.0103
1265.000000	68.781	-173.4088
1280.000000	68.795	-172.7697
1315.000000	68.856	-171.3979
1320.000000	68.867	-171.2478
1340.000000	68.900	-170.5900
1360.000000	68.924	-170.0186
1380.000000	68.947	-169.3606
1400.000000	68.954	-168.6801
1430.000000	68.968	-167.5039
1450.000000	68.985	-166.6460
1475.000000	69.020	-165.5895
1500.000000	69.059	-164.5312
1525.000000	69.109	-163.2890
1550.000000	69.166	-162.0243
1575.000000	69.241	-160.6955
1600.000000	69.333	-159.3853
1625.000000	69.491	-158.0629
1650.000000	69.658	-156.8614
1675.000000	69.841	-155.6637
1700.000000	70.041	-154.4679
1725.000000	70.255	-153.3590
1750.000000	70.503	-152.3418
1775.000000	70.771	-151.3351
1800.000000	71.051	-150.5446
1825.000000	71.355	-149.9345
1850.000000	71.670	-149.4768
1875.000000	71.989	-149.1837
1900.000000	72.315	-149.0189
1925.000000	72.640	-149.0732
1950.000000	72.976	-149.2455
1975.000000	73.316	-149.7800
2000.000000	73.664	-150.6248
2030.000000	74.023	-151.7772
2060.000000	74.367	-153.3238
2090.000000	74.661	-155.1671
2120.000000	74.915	-157.2738
2140.000000	75.066	-158.7357
2180.000000	75.286	-161.7165
2200.000000	75.368	-163.2806
2240.000000	75.482	-166.1938
2270.000000	75.535	-168.3407
2300.000000	75.562	-170.3860
2330.000000	75.571	-172.4088
2360.000000	75.551	-174.4188
2400.000000	75.505	-177.0338
2430.000000	75.438	-178.9614
2470.000000	75.321	178.5957
2500.000000	75.203	176.8683
2540.000000	75.018	174.6657
2580.000000	74.791	172.7126
2620.000000	74.533	171.0106
2650.000000	74.314	170.0631
2690.000000	74.032	169.1088
2720.000000	73.833	168.6532
2760.000000	73.586	168.2477
2800.000000	73.356	168.1338
2850.000000	73.123	168.3375
2900.000000	72.952	168.4376
2950.000000	72.785	168.2396
3000.000000	72.558	167.8478
3040.000000	72.330	167.6282
3070.000000	72.127	167.6668
3110.000000	71.845	168.2319
3150.000000	71.610	169.3475
3200.000000	71.420	171.0384
3250.000000	71.333	172.5467
3300.000000	71.302	173.6343
3350.000000	71.291	174.4351
3400.000000	71.271	174.9639
3450.000000	71.237	175.3586
3500.000000	71.194	175.5359
3550.000000	71.117	175.6364
3600.000000	70.994	175.6780
3650.000000	70.792	176.2597
3700.000000	70.609	177.6223
3750.000000	70.543	179.3842
3820.000000	70.611	-178.4675
3870.000000	70.703	-177.5155
3950.000000	70.791	-176.7990
4000.000000	70.810	-176.5090
4060.000000	70.774	-175.9872
4120.000000	70.748	-175.3551
4180.000000	70.716	-174.4515
4250.000000	70.714	-173.3430
4310.000000	70.747	-172.2518
4370.000000	70.822	-171.2031
4440.000000	70.919	-170.1913
4500.000000	70.970	-169.4200
4550.000000	71.020	-168.7951
4620.000000	71.088	-167.8730
4680.000000	71.162	-167.0634
4750.000000	71.241	-166.0193
4820.000000	71.351	-164.8374
4870.000000	71.476	-163.8503
4940.000000	71.714	-162.7330
5000.000000	71.944	-162.3614
5080.000000	72.234	-162.4191
5150.000000	72.434	-162.8105
5220.000000	72.600	-163.5145
5300.000000	72.747	-164.4597
5380.000000	72.852	-165.6544
5450.000000	72.875	-166.8336
5520.000000	72.834	-167.9383
5600.000000	72.701	-168.8428
5700.000000	72.531	-169.1197
5800.000000	72.346	-168.9817
5900.000000	72.191	-167.7698
6000.000000	72.251	-166.0726
6080.000000	72.377	-165.4464
6150.000000	72.471	-165.7325
6220.000000	72.493	-165.9771
6300.000000	72.483	-166.2502
6400.000000	72.552	-166.3565
6500.000000	72.592	-166.6620
6600.000000	72.581	-166.8184
6700.000000	72.536	-166.7603
6800.000000	72.463	-166.5176
6900.000000	72.355	-166.0707
7000.000000	72.177	-164.9594
7100.000000	72.020	-162.9212
7200.000000	71.966	-159.9936
7300.000000	72.015	-156.6084
7400.000000	72.126	-152.7216
7500.000000	72.430	-147.8036
7620.000000	73.369	-140.7642
7750.000000	75.412	-138.7364
7880.000000	76.798	-146.8451
8000.000000	77.206	-153.4336
8120.000000	77.341	-158.1922
8250.000000	77.512	-162.9085
8380.000000	77.648	-168.2242
8500.000000	77.683	-174.0016
8620.000000	77.481	179.1258
8750.000000	76.805	172.5095
8850.000000	76.136	169.7758
9000.000000	75.311	167.9816
9120.000000	74.766	167.1083
9250.000000	74.223	166.6369
9380.000000	73.704	166.6498
9500.000000	73.258	167.1850
9620.000000	72.904	168.5339
9750.000000	72.740	170.1764
9880.000000	72.685	170.8545
10000.000000	72.626	171.2860
10150.000000	72.748	171.8575
10300.000000	73.022	171.5352
10440.000000	73.339	169.9356
10600.000000	73.698	166.2239
10750.000000	73.899	160.3656
10900.000000	73.694	152.3813
11060.000000	72.635	144.1288
11200.000000	71.151	142.1234
11380.000000	69.919	146.7229
11500.000000	69.559	148.9015
11720.000000	68.935	151.1298
11800.000000	68.693	151.9451
12060.000000	67.985	155.1976
12200.000000	67.665	157.0179
12410.000000	67.309	159.5989
12500.000000	67.152	160.3390
12650.000000	66.787	162.1089
12800.000000	66.464	164.3284
13150.000000	66.033	170.6714
13200.000000	66.064	171.8063
13400.000000	66.199	173.2379
13600.000000	66.193	172.7635
13800.000000	65.910	172.4205
14000.000000	65.789	173.3700
14300.000000	65.632	170.5678
14500.000000	65.106	167.5939
14750.000000	64.030	166.7124
15000.000000	63.041	168.9203
15250.000000	62.362	172.4728
15500.000000	61.923	175.5888
15750.000000	61.710	178.5019
16000.000000	61.450	179.1893
16250.000000	61.466	179.6601
16500.000000	61.250	179.5280
16750.000000	60.792	-179.0508
17000.000000	60.086	-174.8971
17250.000000	59.667	-166.2098
17500.000000	59.892	-154.1888
17750.000000	61.157	-144.1852
18000.000000	62.992	-139.3422
18250.000000	64.662	-140.2472
18500.000000	66.052	-145.3809
18750.000000	66.873	-153.4544
19000.000000	67.018	-162.6885
19250.000000	66.484	-172.2945
19500.000000	65.142	-178.9454
19750.000000	63.680	179.1263
