* Measurement data measured by REW V5.30 beta 4
* Source: Microphone (USB Sound Device        ), MICROPHONE (Master Volume), R, volume: 0.660. Timing signal peak level -13.4 dBFS, measurement signal peak level -11.8 dBFS
* Format: 256k Log Swept Sine, 1 sweep at -12.0 dBFS using an acoustic timing reference
* Dated: Dec 15, 2023 10:58:55 AM
* REW Settings:
*  C-weighting compensation: Off
*  Target level: 75.0 dB
* Note: Delay -0.0189 ms (-6.5 mm, -0.25 in) using estimated IR delay relative to Acoustic reference played from SPEAKER R with no timing offset
* Measurement: R EA500LM RED FOAM De
* Smoothing: None
* Frequency Step: 1/48 octave
* Start Frequency: 1.000 Hz
*
* Freq(Hz) SPL(dB) Phase(degrees)
1.000000 121.069 -27.1695
1.015000 121.011 -27.2152
1.030000 120.954 -27.2440
1.044000 120.903 -27.2551
1.060000 120.848 -27.2487
1.075000 120.798 -27.2238
1.090000 120.752 -27.1802
1.106000 120.706 -27.1112
1.120000 120.665 -27.0248
1.138000 120.613 -26.8782
1.150000 120.579 -26.7597
1.172000 120.516 -26.5028
1.180000 120.493 -26.3975
1.206000 120.422 -26.0161
1.220000 120.385 -25.7882
1.241000 120.332 -25.4209
1.250000 120.310 -25.2551
1.265000 120.274 -24.9691
1.280000 120.241 -24.6726
1.315000 120.173 -23.9498
1.320000 120.164 -23.8440
1.340000 120.133 -23.4170
1.360000 120.107 -22.9871
1.380000 120.088 -22.5588
1.400000 120.074 -22.1361
1.430000 120.068 -21.5220
1.450000 120.073 -21.1321
1.475000 120.091 -20.6677
1.500000 120.123 -20.1777
1.525000 120.166 -19.6563
1.550000 120.220 -19.1114
1.575000 120.285 -18.5512
1.600000 120.358 -17.9837
1.625000 120.440 -17.4170
1.650000 120.529 -16.8590
1.675000 120.624 -16.3179
1.700000 120.725 -15.8018
1.725000 120.829 -15.3186
1.750000 120.938 -14.8765
1.775000 121.048 -14.4834
1.800000 121.160 -14.1475
1.825000 121.273 -13.8769
1.850000 121.387 -13.6705
1.875000 121.510 -13.5100
1.900000 121.640 -13.3923
1.925000 121.775 -13.3152
1.950000 121.916 -13.2765
1.975000 122.061 -13.2739
2.000000 122.209 -13.3053
2.030000 122.390 -13.3846
2.060000 122.572 -13.5057
2.090000 122.753 -13.6649
2.120000 122.932 -13.8582
2.140000 123.049 -14.0041
2.180000 123.277 -14.3320
2.200000 123.386 -14.5117
2.240000 123.601 -14.9375
2.270000 123.762 -15.3196
2.300000 123.922 -15.7484
2.330000 124.081 -16.2173
2.360000 124.239 -16.7201
2.400000 124.447 -17.4318
2.430000 124.600 -17.9883
2.470000 124.800 -18.7484
2.500000 124.946 -19.3237
2.540000 125.136 -20.0854
2.580000 125.320 -20.8334
2.620000 125.497 -21.6092
2.650000 125.626 -22.2123
2.690000 125.794 -23.0378
2.720000 125.917 -23.6684
2.760000 126.077 -24.5173
2.800000 126.233 -25.3680
2.850000 126.424 -26.4205
2.900000 126.610 -27.4455
2.950000 126.792 -28.4308
3.000000 126.967 -29.4039
3.040000 127.103 -30.1768
3.070000 127.202 -30.7515
3.110000 127.332 -31.5091
3.150000 127.459 -32.2543
3.200000 127.617 -33.1648
3.250000 127.774 -34.0469
3.300000 127.931 -34.8959
3.350000 128.087 -35.7107
3.400000 128.240 -36.4951
3.450000 128.392 -37.2528
3.500000 128.542 -37.9870
3.550000 128.692 -38.7013
3.600000 128.844 -39.3991
3.650000 128.997 -40.0838
3.700000 129.153 -40.7523
3.750000 129.310 -41.3939
3.820000 129.531 -42.2574
3.870000 129.690 -42.8580
3.950000 129.946 -43.8076
4.000000 130.108 -44.4039
4.060000 130.303 -45.1276
4.120000 130.501 -45.8437
4.180000 130.701 -46.5539
4.250000 130.935 -47.3824
4.310000 131.135 -48.0988
4.370000 131.333 -48.8268
4.440000 131.562 -49.6954
4.500000 131.759 -50.4517
4.550000 131.922 -51.0886
4.620000 132.149 -51.9884
4.680000 132.340 -52.7653
4.750000 132.558 -53.6757
4.820000 132.770 -54.5939
4.870000 132.920 -55.2582
4.940000 133.125 -56.1941
5.000000 133.297 -56.9964
5.080000 133.521 -58.0571
5.150000 133.710 -58.9698
5.220000 133.894 -59.8779
5.300000 134.097 -60.9092
5.380000 134.293 -61.9248
5.450000 134.460 -62.7936
5.520000 134.623 -63.6384
5.600000 134.803 -64.5807
5.700000 135.020 -65.7256
5.800000 135.230 -66.8316
5.900000 135.435 -67.8957
6.000000 135.634 -68.9138
6.080000 135.790 -69.7006
6.150000 135.924 -70.3733
6.220000 136.056 -71.0351
6.300000 136.206 -71.7749
6.400000 136.391 -72.6707
6.500000 136.572 -73.5460
6.600000 136.750 -74.4132
6.700000 136.925 -75.2707
6.800000 137.097 -76.1156
6.900000 137.265 -76.9538
7.000000 137.429 -77.7907
7.100000 137.588 -78.6251
7.200000 137.744 -79.4545
7.300000 137.894 -80.2770
7.400000 138.039 -81.0928
7.500000 138.178 -81.9035
7.620000 138.340 -82.8635
7.750000 138.507 -83.8809
7.880000 138.666 -84.8771
8.000000 138.806 -85.7768
8.120000 138.942 -86.6545
8.250000 139.084 -87.5800
8.380000 139.220 -88.4854
8.500000 139.343 -89.3063
8.620000 139.463 -90.1100
8.750000 139.589 -90.9700
8.850000 139.683 -91.6285
9.000000 139.822 -92.6067
9.120000 139.929 -93.3854
9.250000 140.042 -94.2294
9.380000 140.151 -95.0719
9.500000 140.249 -95.8468
9.620000 140.342 -96.6194
9.750000 140.439 -97.4538
9.880000 140.532 -98.2808
10.000000 140.615 -99.0363
10.150000 140.714 -99.9711
10.300000 140.809 -100.8910
10.440000 140.894 -101.7356
10.600000 140.988 -102.6867
10.750000 141.073 -103.5649
10.900000 141.156 -104.4308
11.060000 141.243 -105.3461
11.200000 141.316 -106.1392
11.380000 141.409 -107.1507
11.500000 141.468 -107.8211
11.720000 141.574 -109.0386
11.800000 141.611 -109.4772
12.060000 141.728 -110.8863
12.200000 141.788 -111.6306
12.410000 141.875 -112.7282
12.500000 141.911 -113.1904
12.650000 141.970 -113.9500
12.800000 142.028 -114.6973
13.150000 142.159 -116.3946
13.200000 142.178 -116.6327
13.400000 142.249 -117.5739
13.600000 142.319 -118.4992
13.800000 142.387 -119.4095
14.000000 142.452 -120.3030
14.300000 142.544 -121.6100
14.500000 142.601 -122.4563
14.750000 142.670 -123.4856
15.000000 142.736 -124.4835
15.250000 142.799 -125.4531
15.500000 142.858 -126.3984
15.750000 142.915 -127.3219
16.000000 142.968 -128.2261
16.250000 143.018 -129.1117
16.500000 143.065 -129.9792
16.750000 143.108 -130.8293
17.000000 143.149 -131.6638
17.250000 143.187 -132.4844
17.500000 143.222 -133.2929
17.750000 143.254 -134.0906
18.000000 143.284 -134.8770
18.250000 143.311 -135.6519
18.500000 143.336 -136.4140
18.750000 143.359 -137.1635
19.000000 143.380 -137.9005
19.250000 143.401 -138.6272
19.500000 143.421 -139.3448
19.750000 143.439 -140.0543
20.000000 143.457 -140.7561
20.299999 143.478 -141.5865
20.600000 143.497 -142.4023
20.900000 143.515 -143.2020
21.200001 143.532 -143.9855
21.400000 143.544 -144.4997
21.799999 143.567 -145.5095
22.000000 143.577 -146.0055
22.400000 143.598 -146.9790
22.700001 143.612 -147.6916
23.000000 143.625 -148.3879
23.299999 143.636 -149.0679
23.600000 143.647 -149.7322
24.000000 143.660 -150.5944
24.299999 143.667 -151.2238
24.700001 143.676 -152.0413
25.000000 143.682 -152.6404
25.400000 143.688 -153.4249
25.799999 143.692 -154.1970
26.200001 143.693 -154.9566
26.500000 143.693 -155.5154
26.900000 143.690 -156.2433
27.200001 143.688 -156.7769
27.600000 143.684 -157.4765
28.000000 143.681 -158.1691
28.500000 143.676 -159.0289
29.000000 143.670 -159.8767
29.500000 143.663 -160.7053
30.000000 143.654 -161.5137
30.400000 143.648 -162.1467
30.700001 143.642 -162.6126
31.100000 143.634 -163.2203
31.500000 143.626 -163.8124
32.000000 143.616 -164.5342
32.500000 143.605 -165.2404
33.000000 143.593 -165.9297
33.500000 143.579 -166.5977
34.000000 143.564 -167.2460
34.500000 143.550 -167.8843
35.000000 143.535 -168.5199
35.500000 143.518 -169.1492
36.000000 143.499 -169.7617
36.500000 143.480 -170.3539
37.000000 143.462 -170.9337
37.500000 143.444 -171.5108
38.200001 143.418 -172.3089
38.700001 143.397 -172.8573
39.500000 143.367 -173.6957
40.000000 143.349 -174.2116
40.599998 143.326 -174.8257
41.200001 143.301 -175.4199
41.799999 143.276 -175.9912
42.500000 143.247 -176.6436
43.099998 143.220 -177.1934
43.700001 143.193 -177.7292
44.400002 143.162 -178.3418
45.000000 143.134 -178.8607
45.500000 143.111 -179.2848
46.200001 143.077 -179.8615
46.799999 143.049 179.6569
47.500000 143.017 179.1097
48.200001 142.985 178.5749
48.700001 142.963 178.1935
49.400002 142.930 177.6625
50.000000 142.900 177.2265
50.799999 142.861 176.6736
51.500000 142.828 176.1913
52.200001 142.794 175.7132
53.000000 142.754 175.1915
53.799999 142.716 174.6800
54.500000 142.682 174.2391
55.200001 142.648 173.8169
56.000000 142.612 173.3387
57.000000 142.563 172.7430
58.000000 142.511 172.1920
59.000000 142.461 171.6608
60.000000 142.412 171.1505
60.799999 142.374 170.7427
61.500000 142.339 170.3798
62.200001 142.303 170.0316
63.000000 142.263 169.6528
64.000000 142.213 169.1762
65.000000 142.162 168.7230
66.000000 142.113 168.2943
67.000000 142.064 167.8612
68.000000 142.014 167.4456
69.000000 141.964 167.0443
70.000000 141.915 166.6573
71.000000 141.866 166.2756
72.000000 141.815 165.9057
73.000000 141.765 165.5560
74.000000 141.717 165.2199
75.000000 141.669 164.8853
76.199997 141.609 164.4920
77.500000 141.546 164.0939
78.800003 141.482 163.7065
80.000000 141.426 163.3626
81.199997 141.368 163.0123
82.500000 141.304 162.6707
83.800003 141.242 162.3340
85.000000 141.186 162.0425
86.199997 141.131 161.7384
87.500000 141.069 161.4305
88.500000 141.023 161.2087
90.000000 140.953 160.8825
91.199997 140.899 160.6335
92.500000 140.840 160.3680
93.800003 140.781 160.1192
95.000000 140.728 159.9056
96.199997 140.676 159.6814
97.500000 140.618 159.4528
98.800003 140.560 159.2385
100.000000 140.508 159.0523
101.500000 140.443 158.8289
103.000000 140.379 158.6128
104.400002 140.320 158.4274
106.000000 140.252 158.2081
107.500000 140.189 158.0214
109.000000 140.125 157.8516
110.599998 140.061 157.6797
112.000000 140.004 157.5360
113.800003 139.930 157.3564
115.000000 139.885 157.2336
117.199997 139.797 157.0467
118.000000 139.766 156.9666
120.599998 139.667 156.7338
122.000000 139.611 156.6690
124.099998 139.531 156.5174
125.000000 139.498 156.4609
126.500000 139.442 156.3779
128.000000 139.390 156.2887
131.500000 139.264 156.1253
132.000000 139.246 156.1015
134.000000 139.174 156.0210
136.000000 139.102 155.9396
138.000000 139.035 155.8791
140.000000 138.966 155.8321
143.000000 138.866 155.7664
145.000000 138.799 155.7201
147.500000 138.717 155.6914
150.000000 138.639 155.6771
152.500000 138.559 155.6711
155.000000 138.482 155.6713
157.500000 138.406 155.6682
160.000000 138.334 155.6709
162.500000 138.260 155.6962
165.000000 138.189 155.7238
167.500000 138.118 155.7652
170.000000 138.047 155.8097
172.500000 137.979 155.8640
175.000000 137.913 155.9276
177.500000 137.847 155.9960
180.000000 137.780 156.0703
182.500000 137.716 156.1512
185.000000 137.652 156.2366
187.500000 137.588 156.3163
190.000000 137.528 156.4099
192.500000 137.467 156.5151
195.000000 137.406 156.6187
197.500000 137.350 156.7304
200.000000 137.291 156.8334
203.000000 137.224 156.9732
206.000000 137.158 157.1235
209.000000 137.094 157.2910
212.000000 137.032 157.4305
214.000000 136.987 157.5325
218.000000 136.908 157.7665
220.000000 136.867 157.8595
224.000000 136.791 158.0758
227.000000 136.732 158.2612
230.000000 136.676 158.4566
233.000000 136.620 158.6375
236.000000 136.568 158.8134
240.000000 136.497 159.0693
243.000000 136.443 159.2684
247.000000 136.377 159.5101
250.000000 136.327 159.7184
254.000000 136.264 159.9834
258.000000 136.202 160.2370
262.000000 136.140 160.5209
265.000000 136.094 160.7319
269.000000 136.035 160.9979
272.000000 135.992 161.2208
276.000000 135.934 161.4999
280.000000 135.879 161.7919
285.000000 135.812 162.1342
290.000000 135.748 162.4953
295.000000 135.683 162.8679
300.000000 135.623 163.2205
304.000000 135.577 163.5323
307.000000 135.540 163.7408
311.000000 135.496 164.0389
315.000000 135.451 164.3380
320.000000 135.397 164.7150
325.000000 135.347 165.0849
330.000000 135.295 165.4578
335.000000 135.248 165.8199
340.000000 135.197 166.2029
345.000000 135.153 166.5812
350.000000 135.105 166.9694
355.000000 135.063 167.3267
360.000000 135.021 167.7172
365.000000 134.981 168.0844
370.000000 134.939 168.4814
375.000000 134.900 168.8327
382.000000 134.849 169.3643
387.000000 134.810 169.7556
395.000000 134.757 170.3368
400.000000 134.723 170.7027
406.000000 134.686 171.1564
412.000000 134.645 171.6245
418.000000 134.609 172.0676
425.000000 134.567 172.5897
431.000000 134.534 173.0319
437.000000 134.503 173.4779
444.000000 134.465 174.0011
450.000000 134.433 174.4460
455.000000 134.410 174.8286
462.000000 134.378 175.3498
468.000000 134.348 175.7849
475.000000 134.320 176.3201
482.000000 134.287 176.8409
487.000000 134.269 177.2094
494.000000 134.244 177.6985
500.000000 134.221 178.1488
508.000000 134.191 178.7227
515.000000 134.173 179.2592
522.000000 134.153 179.7605
530.000000 134.126 -179.6522
538.000000 134.106 -179.0441
545.000000 134.089 -178.5449
552.000000 134.069 -178.0286
560.000000 134.050 -177.4577
570.000000 134.030 -176.7266
580.000000 134.010 -175.9772
590.000000 133.991 -175.2620
600.000000 133.977 -174.5191
608.000000 133.966 -173.9286
615.000000 133.960 -173.4312
622.000000 133.952 -172.9037
630.000000 133.943 -172.3278
640.000000 133.937 -171.5796
650.000000 133.935 -170.8483
660.000000 133.931 -170.1234
670.000000 133.930 -169.3790
680.000000 133.931 -168.6316
690.000000 133.936 -167.8931
700.000000 133.941 -167.1512
710.000000 133.956 -166.4156
720.000000 133.961 -165.6632
730.000000 133.973 -164.9199
740.000000 133.990 -164.1927
750.000000 134.009 -163.4503
762.000000 134.035 -162.5597
775.000000 134.064 -161.5903
788.000000 134.104 -160.6443
800.000000 134.141 -159.7943
812.000000 134.181 -158.8931
825.000000 134.231 -157.9709
838.000000 134.286 -157.0254
850.000000 134.337 -156.2222
862.000000 134.397 -155.4025
875.000000 134.465 -154.5227
885.000000 134.521 -153.8672
900.000000 134.608 -152.9076
912.000000 134.682 -152.1745
925.000000 134.766 -151.3945
938.000000 134.857 -150.6342
950.000000 134.941 -149.9594
962.000000 135.025 -149.3104
975.000000 135.123 -148.6565
988.000000 135.221 -148.0123
1000.000000 135.313 -147.4452
1015.000000 135.428 -146.8322
1030.000000 135.545 -146.2375
1044.000000 135.654 -145.7164
1060.000000 135.782 -145.1773
1075.000000 135.896 -144.7027
1090.000000 136.008 -144.2596
1106.000000 136.129 -143.8436
1120.000000 136.230 -143.5122
1138.000000 136.358 -143.1237
1150.000000 136.440 -142.8510
1172.000000 136.589 -142.4191
1180.000000 136.644 -142.2871
1206.000000 136.810 -141.8042
1220.000000 136.900 -141.5969
1241.000000 137.030 -141.2333
1250.000000 137.085 -141.1041
1265.000000 137.179 -140.8983
1280.000000 137.266 -140.6881
1315.000000 137.471 -140.2616
1320.000000 137.500 -140.2182
1340.000000 137.606 -139.9779
1360.000000 137.718 -139.7689
1380.000000 137.820 -139.5501
1400.000000 137.925 -139.3604
1430.000000 138.077 -139.0522
1450.000000 138.175 -138.8496
1475.000000 138.303 -138.5834
1500.000000 138.430 -138.3230
1525.000000 138.555 -138.0765
1550.000000 138.684 -137.8246
1575.000000 138.810 -137.5982
1600.000000 138.937 -137.3835
1625.000000 139.070 -137.1875
1650.000000 139.199 -137.0087
1675.000000 139.332 -136.8556
1700.000000 139.465 -136.6977
1725.000000 139.599 -136.6035
1750.000000 139.735 -136.5005
1775.000000 139.868 -136.4219
1800.000000 140.001 -136.3691
1825.000000 140.135 -136.3539
1850.000000 140.270 -136.3582
1875.000000 140.406 -136.3775
1900.000000 140.543 -136.4149
1925.000000 140.679 -136.5053
1950.000000 140.816 -136.6267
1975.000000 140.953 -136.7615
2000.000000 141.086 -136.9478
2030.000000 141.252 -137.1865
2060.000000 141.415 -137.4737
2090.000000 141.574 -137.8280
2120.000000 141.732 -138.2188
2140.000000 141.838 -138.5188
2180.000000 142.044 -139.1895
2200.000000 142.145 -139.5407
2240.000000 142.342 -140.3609
2270.000000 142.485 -141.0301
2300.000000 142.622 -141.7645
2330.000000 142.753 -142.5492
2360.000000 142.881 -143.3782
2400.000000 143.037 -144.5636
2430.000000 143.149 -145.5086
2470.000000 143.284 -146.8169
2500.000000 143.374 -147.8548
2540.000000 143.482 -149.2800
2580.000000 143.577 -150.7519
2620.000000 143.657 -152.2644
2650.000000 143.704 -153.3910
2690.000000 143.753 -154.9161
2720.000000 143.780 -156.0535
2760.000000 143.803 -157.5600
2800.000000 143.812 -159.0375
2850.000000 143.803 -160.8519
2900.000000 143.776 -162.5613
2950.000000 143.733 -164.2079
3000.000000 143.676 -165.7449
3040.000000 143.621 -166.8853
3070.000000 143.575 -167.7014
3110.000000 143.510 -168.7185
3150.000000 143.440 -169.6697
3200.000000 143.348 -170.7545
3250.000000 143.254 -171.7353
3300.000000 143.155 -172.6180
3350.000000 143.058 -173.3908
3400.000000 142.960 -174.0663
3450.000000 142.864 -174.6745
3500.000000 142.773 -175.1938
3550.000000 142.682 -175.6464
3600.000000 142.598 -176.0479
3650.000000 142.519 -176.3853
3700.000000 142.445 -176.6660
3750.000000 142.373 -176.8971
3820.000000 142.285 -177.1784
3870.000000 142.232 -177.3571
3950.000000 142.152 -177.5887
4000.000000 142.111 -177.6793
4060.000000 142.066 -177.8639
4120.000000 142.033 -177.9922
4180.000000 142.007 -178.1441
4250.000000 141.984 -178.3265
4310.000000 141.969 -178.5154
4370.000000 141.961 -178.7092
4440.000000 141.957 -178.9985
4500.000000 141.958 -179.2944
4550.000000 141.960 -179.5649
4620.000000 141.965 -179.9892
4680.000000 141.966 179.5674
4750.000000 141.970 179.0155
4820.000000 141.965 178.3736
4870.000000 141.957 177.8793
4940.000000 141.938 177.1391
5000.000000 141.913 176.4568
5080.000000 141.866 175.5299
5150.000000 141.808 174.6657
5220.000000 141.742 173.8246
5300.000000 141.639 172.8568
5380.000000 141.517 171.9358
5450.000000 141.396 171.2133
5520.000000 141.255 170.5215
5600.000000 141.080 169.8519
5700.000000 140.836 169.2343
5800.000000 140.576 168.8849
5900.000000 140.303 168.8365
6000.000000 140.034 169.1171
6080.000000 139.839 169.5436
6150.000000 139.688 169.9971
6220.000000 139.544 170.4568
6300.000000 139.394 170.9175
6400.000000 139.186 171.5589
6500.000000 138.980 172.3544
6600.000000 138.773 173.3729
6700.000000 138.595 174.5228
6800.000000 138.430 175.8461
6900.000000 138.287 177.3515
7000.000000 138.184 178.8667
7100.000000 138.128 -179.5703
7200.000000 138.096 -178.0237
7300.000000 138.092 -176.5658
7400.000000 138.120 -175.1204
7500.000000 138.183 -173.7845
7620.000000 138.302 -172.3034
7750.000000 138.479 -170.9319
7880.000000 138.718 -169.9566
8000.000000 138.969 -169.4984
8120.000000 139.294 -169.5113
8250.000000 139.655 -170.2397
8380.000000 140.026 -171.8699
8500.000000 140.345 -174.2573
8620.000000 140.607 -177.4956
8750.000000 140.784 178.0961
8850.000000 140.817 174.2260
9000.000000 140.681 168.0369
9120.000000 140.388 163.0656
9250.000000 139.916 157.9368
9380.000000 139.257 153.3098
9500.000000 138.494 149.7977
9620.000000 137.592 147.5223
9750.000000 136.559 146.7664
9880.000000 135.595 147.6018
10000.000000 134.791 149.3706
10150.000000 133.955 152.3089
10300.000000 133.247 155.6678
10440.000000 132.708 159.1476
10600.000000 132.182 163.1941
10750.000000 131.787 167.1769
10900.000000 131.475 171.2212
11060.000000 131.220 175.5164
11200.000000 131.064 179.3401
11380.000000 130.931 -175.7123
11500.000000 130.935 -172.5631
11720.000000 130.989 -166.6518
11800.000000 131.060 -164.6337
12060.000000 131.388 -158.1550
12200.000000 131.640 -154.9263
12410.000000 132.168 -150.3341
12500.000000 132.422 -148.6592
12650.000000 132.940 -146.1258
12800.000000 133.546 -143.9453
13150.000000 135.364 -142.2464
13200.000000 135.672 -142.5198
13400.000000 137.004 -145.8692
13600.000000 138.300 -154.0822
13800.000000 139.045 -168.0948
14000.000000 138.620 175.5644
14300.000000 136.270 159.0529
14500.000000 134.452 154.7584
14750.000000 132.394 154.1849
15000.000000 130.678 156.4343
15250.000000 129.316 160.6127
15500.000000 128.276 165.5931
15750.000000 127.542 171.4405
16000.000000 127.159 176.9259
16250.000000 127.116 -178.4263
16500.000000 127.275 -175.3685
16750.000000 127.476 -174.3179
17000.000000 127.650 -174.8336
17250.000000 127.617 -176.4925
17500.000000 127.369 -178.7930
17750.000000 126.964 179.1839
18000.000000 126.332 177.6003
18250.000000 125.629 176.9073
18500.000000 124.891 176.6660
18750.000000 124.111 177.3636
19000.000000 123.332 178.3370
19250.000000 122.600 179.1457
