* Measurement data measured by REW V5.30 beta 4
* Source: Microphone (USB Sound Device        ), MICROPHONE (Master Volume), L, volume: 0.660. Timing signal peak level -10.9 dBFS, measurement signal peak level -10.4 dBFS
* Format: 256k Log Swept Sine, 1 sweep at -12.0 dBFS using an acoustic timing reference
* Dated: Dec 15, 2023 11:01:06 AM
* REW Settings:
*  C-weighting compensation: Off
*  Target level: 75.0 dB
* Note: Delay -0.0205 ms (-7.0 mm, -0.28 in) using estimated IR delay relative to Acoustic reference played from SPEAKER L with no timing offset
* Measurement: L EA500LM BLACK FOAM D
* Smoothing: None
* Frequency Step: 1/48 octave
* Start Frequency: 1.000 Hz
*
* Freq(Hz) SPL(dB) Phase(degrees)
1.000000 121.664 119.7280
1.015000 121.545 118.4933
1.030000 121.426 117.2281
1.044000 121.315 116.0179
1.060000 121.188 114.5981
1.075000 121.071 113.2296
1.090000 120.954 111.8228
1.106000 120.830 110.2786
1.120000 120.717 108.8933
1.138000 120.564 107.0680
1.150000 120.459 105.8245
1.172000 120.260 103.4922
1.180000 120.186 102.6278
1.206000 119.942 99.7620
1.220000 119.809 98.1848
1.241000 119.609 95.7771
1.250000 119.524 94.7307
1.265000 119.382 92.9683
1.280000 119.242 91.1840
1.315000 118.928 86.9433
1.320000 118.885 86.3293
1.340000 118.718 83.8551
1.360000 118.560 81.3540
1.380000 118.414 78.8289
1.400000 118.282 76.2831
1.430000 118.112 72.4324
1.450000 118.021 69.8484
1.475000 117.934 66.5917
1.500000 117.870 63.1984
1.525000 117.825 59.6663
1.550000 117.799 56.0235
1.575000 117.790 52.2978
1.600000 117.797 48.5172
1.625000 117.820 44.7098
1.650000 117.857 40.9034
1.675000 117.907 37.1259
1.700000 117.970 33.4055
1.725000 118.043 29.7699
1.750000 118.126 26.2473
1.775000 118.219 22.8654
1.800000 118.319 19.6524
1.825000 118.425 16.6360
1.850000 118.543 13.8085
1.875000 118.681 11.0956
1.900000 118.837 8.4901
1.925000 119.010 5.9880
1.950000 119.197 3.5854
1.975000 119.394 1.2781
2.000000 119.600 -0.9376
2.030000 119.854 -3.4813
2.060000 120.112 -5.9058
2.090000 120.370 -8.2180
2.120000 120.622 -10.4248
2.140000 120.786 -11.8408
2.180000 121.095 -14.5494
2.200000 121.238 -15.8457
2.240000 121.514 -18.2544
2.270000 121.719 -19.8913
2.300000 121.921 -21.3974
2.330000 122.120 -22.7862
2.360000 122.316 -24.0709
2.400000 122.573 -25.6447
2.430000 122.762 -26.7381
2.470000 123.010 -28.1050
2.500000 123.192 -29.0794
2.540000 123.429 -30.3358
2.580000 123.660 -31.5596
2.620000 123.883 -32.6660
2.650000 124.044 -33.4126
2.690000 124.254 -34.3108
2.720000 124.408 -34.9208
2.760000 124.609 -35.6629
2.800000 124.807 -36.3393
2.850000 125.052 -37.1185
2.900000 125.296 -37.8549
2.950000 125.543 -38.5705
3.000000 125.786 -39.1928
3.040000 125.979 -39.6216
3.070000 126.122 -39.9106
3.110000 126.312 -40.2616
3.150000 126.501 -40.5841
3.200000 126.737 -40.9647
3.250000 126.972 -41.3413
3.300000 127.209 -41.7363
3.350000 127.448 -42.1224
3.400000 127.687 -42.4773
3.450000 127.925 -42.8125
3.500000 128.164 -43.1391
3.550000 128.400 -43.4684
3.600000 128.635 -43.8118
3.650000 128.867 -44.1804
3.700000 129.097 -44.5763
3.750000 129.326 -44.9831
3.820000 129.645 -45.5714
3.870000 129.870 -46.0065
3.950000 130.222 -46.7312
4.000000 130.436 -47.2034
4.060000 130.686 -47.7926
4.120000 130.931 -48.4106
4.180000 131.170 -49.0523
4.250000 131.442 -49.8224
4.310000 131.668 -50.4938
4.370000 131.887 -51.1689
4.440000 132.132 -51.9603
4.500000 132.335 -52.6545
4.550000 132.499 -53.2406
4.620000 132.721 -54.0649
4.680000 132.905 -54.7679
4.750000 133.112 -55.5746
4.820000 133.312 -56.3672
4.870000 133.448 -56.9315
4.940000 133.633 -57.7152
5.000000 133.786 -58.3776
5.080000 133.984 -59.2414
5.150000 134.152 -59.9740
5.220000 134.315 -60.6869
5.300000 134.494 -61.4806
5.380000 134.667 -62.2534
5.450000 134.815 -62.9138
5.520000 134.962 -63.5600
5.600000 135.126 -64.2750
5.700000 135.326 -65.1403
5.800000 135.522 -65.9878
5.900000 135.716 -66.8290
6.000000 135.907 -67.6529
6.080000 136.058 -68.3040
6.150000 136.188 -68.8739
6.220000 136.317 -69.4485
6.300000 136.463 -70.1106
6.400000 136.643 -70.9400
6.500000 136.820 -71.7751
6.600000 136.992 -72.6197
6.700000 137.159 -73.4764
6.800000 137.322 -74.3422
6.900000 137.481 -75.2118
7.000000 137.634 -76.0817
7.100000 137.781 -76.9571
7.200000 137.923 -77.8330
7.300000 138.061 -78.7018
7.400000 138.194 -79.5602
7.500000 138.321 -80.4128
7.620000 138.468 -81.4228
7.750000 138.622 -82.4931
7.880000 138.770 -83.5401
8.000000 138.902 -84.4882
8.120000 139.031 -85.4188
8.250000 139.168 -86.4055
8.380000 139.300 -87.3765
8.500000 139.421 -88.2637
8.620000 139.539 -89.1393
8.750000 139.664 -90.0796
8.850000 139.758 -90.8001
9.000000 139.897 -91.8742
9.120000 140.004 -92.7271
9.250000 140.116 -93.6454
9.380000 140.225 -94.5577
9.500000 140.322 -95.3903
9.620000 140.415 -96.2123
9.750000 140.513 -97.0923
9.880000 140.607 -97.9568
10.000000 140.691 -98.7394
10.150000 140.793 -99.6985
10.300000 140.891 -100.6358
10.440000 140.980 -101.4896
10.600000 141.079 -102.4451
10.750000 141.170 -103.3233
10.900000 141.258 -104.1848
11.060000 141.350 -105.0913
11.200000 141.428 -105.8733
11.380000 141.526 -106.8660
11.500000 141.589 -107.5207
11.720000 141.700 -108.7041
11.800000 141.739 -109.1288
12.060000 141.860 -110.4878
12.200000 141.922 -111.2038
12.410000 142.011 -112.2576
12.500000 142.047 -112.7016
12.650000 142.107 -113.4309
12.800000 142.164 -114.1486
13.150000 142.290 -115.7808
13.200000 142.308 -116.0097
13.400000 142.375 -116.9152
13.600000 142.439 -117.8055
13.800000 142.500 -118.6812
14.000000 142.558 -119.5420
14.300000 142.639 -120.8050
14.500000 142.690 -121.6277
14.750000 142.751 -122.6361
15.000000 142.808 -123.6235
15.250000 142.863 -124.5930
15.500000 142.914 -125.5466
15.750000 142.963 -126.4851
16.000000 143.008 -127.4085
16.250000 143.051 -128.3151
16.500000 143.091 -129.2045
16.750000 143.129 -130.0754
17.000000 143.165 -130.9287
17.250000 143.199 -131.7653
17.500000 143.232 -132.5865
17.750000 143.263 -133.3940
18.000000 143.293 -134.1881
18.250000 143.321 -134.9694
18.500000 143.348 -135.7378
18.750000 143.374 -136.4932
19.000000 143.398 -137.2356
19.250000 143.421 -137.9649
19.500000 143.442 -138.6808
19.750000 143.462 -139.3829
20.000000 143.480 -140.0706
20.299999 143.501 -140.8768
20.600000 143.521 -141.6631
20.900000 143.539 -142.4313
21.200001 143.557 -143.1844
21.400000 143.568 -143.6796
21.799999 143.587 -144.6536
22.000000 143.596 -145.1321
22.400000 143.612 -146.0703
22.700001 143.622 -146.7565
23.000000 143.631 -147.4291
23.299999 143.640 -148.0913
23.600000 143.648 -148.7461
24.000000 143.656 -149.6096
24.299999 143.660 -150.2475
24.700001 143.662 -151.0779
25.000000 143.662 -151.6806
25.400000 143.662 -152.4560
25.799999 143.662 -153.2062
26.200001 143.663 -153.9435
26.500000 143.665 -154.4940
26.900000 143.665 -155.2262
27.200001 143.664 -155.7705
27.600000 143.661 -156.4823
28.000000 143.655 -157.1710
28.500000 143.649 -157.9996
29.000000 143.643 -158.8073
29.500000 143.637 -159.6083
30.000000 143.628 -160.3999
30.400000 143.618 -161.0143
30.700001 143.610 -161.4595
31.100000 143.600 -162.0333
31.500000 143.591 -162.5931
32.000000 143.582 -163.2888
32.500000 143.571 -163.9869
33.000000 143.558 -164.6778
33.500000 143.543 -165.3493
34.000000 143.527 -165.9970
34.500000 143.511 -166.6254
35.000000 143.495 -167.2404
35.500000 143.479 -167.8463
36.000000 143.462 -168.4430
36.500000 143.444 -169.0248
37.000000 143.425 -169.5847
37.500000 143.406 -170.1243
38.200001 143.383 -170.8677
38.700001 143.366 -171.4012
39.500000 143.334 -172.2381
40.000000 143.312 -172.7361
40.599998 143.288 -173.3145
41.200001 143.265 -173.8886
41.799999 143.241 -174.4601
42.500000 143.210 -175.1092
43.099998 143.184 -175.6439
43.700001 143.159 -176.1652
44.400002 143.130 -176.7673
45.000000 143.103 -177.2765
45.500000 143.080 -177.6866
46.200001 143.048 -178.2344
46.799999 143.022 -178.6940
47.500000 142.992 -179.2344
48.200001 142.960 -179.7637
48.700001 142.936 179.8733
49.400002 142.904 179.3751
50.000000 142.876 178.9506
50.799999 142.838 178.4061
51.500000 142.806 177.9501
52.200001 142.777 177.4903
53.000000 142.740 176.9609
53.799999 142.701 176.4544
54.500000 142.667 176.0361
55.200001 142.635 175.6317
56.000000 142.598 175.1730
57.000000 142.552 174.6048
58.000000 142.503 174.0562
59.000000 142.454 173.5350
60.000000 142.407 173.0284
60.799999 142.369 172.6290
61.500000 142.336 172.2896
62.200001 142.303 171.9511
63.000000 142.264 171.5740
64.000000 142.216 171.1420
65.000000 142.170 170.7014
66.000000 142.121 170.2785
67.000000 142.074 169.8732
68.000000 142.023 169.4650
69.000000 141.975 169.1250
70.000000 141.936 168.7372
71.000000 141.885 168.3303
72.000000 141.837 167.9923
73.000000 141.791 167.6282
74.000000 141.741 167.3045
75.000000 141.698 166.9886
76.199997 141.643 166.5892
77.500000 141.584 166.1834
78.800003 141.522 165.8030
80.000000 141.469 165.4692
81.199997 141.413 165.1509
82.500000 141.358 164.8313
83.800003 141.301 164.4918
85.000000 141.247 164.1994
86.199997 141.193 163.9078
87.500000 141.131 163.6259
88.500000 141.087 163.4301
90.000000 141.023 163.1073
91.199997 140.969 162.8633
92.500000 140.913 162.6215
93.800003 140.858 162.3787
95.000000 140.808 162.1668
96.199997 140.757 161.9541
97.500000 140.703 161.7396
98.800003 140.648 161.5251
100.000000 140.599 161.3567
101.500000 140.538 161.1162
103.000000 140.476 160.9138
104.400002 140.419 160.7435
106.000000 140.360 160.5519
107.500000 140.299 160.3568
109.000000 140.239 160.1994
110.599998 140.179 159.9998
112.000000 140.119 159.8676
113.800003 140.055 159.7150
115.000000 140.010 159.6033
117.199997 139.929 159.4007
118.000000 139.898 159.3428
120.599998 139.785 159.1277
122.000000 139.748 159.0638
124.099998 139.677 158.9602
125.000000 139.648 158.8783
126.500000 139.592 158.7938
128.000000 139.536 158.7332
131.500000 139.416 158.5873
132.000000 139.400 158.5619
134.000000 139.337 158.4755
136.000000 139.270 158.3909
138.000000 139.205 158.3328
140.000000 139.137 158.2831
143.000000 139.043 158.2495
145.000000 138.981 158.2267
147.500000 138.903 158.1997
150.000000 138.825 158.1635
152.500000 138.750 158.1584
155.000000 138.676 158.1805
157.500000 138.607 158.2123
160.000000 138.535 158.2141
162.500000 138.465 158.2502
165.000000 138.398 158.3047
167.500000 138.328 158.3788
170.000000 138.262 158.4160
172.500000 138.202 158.4457
175.000000 138.142 158.5082
177.500000 138.079 158.6003
180.000000 138.012 158.6926
182.500000 137.953 158.7521
185.000000 137.896 158.8292
187.500000 137.837 158.9515
190.000000 137.776 159.0654
192.500000 137.715 159.1875
195.000000 137.661 159.2869
197.500000 137.608 159.3907
200.000000 137.556 159.5239
203.000000 137.489 159.7006
206.000000 137.425 159.8299
209.000000 137.361 159.9833
212.000000 137.305 160.1445
214.000000 137.271 160.2621
218.000000 137.194 160.4894
220.000000 137.155 160.6024
224.000000 137.082 160.8186
227.000000 137.030 161.0115
230.000000 136.976 161.2089
233.000000 136.924 161.3937
236.000000 136.873 161.5982
240.000000 136.807 161.8329
243.000000 136.757 162.0449
247.000000 136.693 162.3352
250.000000 136.644 162.5274
254.000000 136.583 162.7977
258.000000 136.528 163.0815
262.000000 136.473 163.3766
265.000000 136.427 163.5882
269.000000 136.372 163.8762
272.000000 136.332 164.0934
276.000000 136.279 164.3625
280.000000 136.233 164.6587
285.000000 136.174 165.0616
290.000000 136.109 165.4238
295.000000 136.049 165.7855
300.000000 135.990 166.1645
304.000000 135.949 166.4522
307.000000 135.917 166.6893
311.000000 135.874 166.9992
315.000000 135.835 167.3207
320.000000 135.782 167.7099
325.000000 135.733 168.1063
330.000000 135.686 168.4465
335.000000 135.642 168.8436
340.000000 135.598 169.2337
345.000000 135.556 169.6422
350.000000 135.517 170.0071
355.000000 135.475 170.3681
360.000000 135.435 170.7778
365.000000 135.395 171.1725
370.000000 135.361 171.5758
375.000000 135.327 171.9755
382.000000 135.283 172.4844
387.000000 135.247 172.8479
395.000000 135.191 173.4650
400.000000 135.166 173.8687
406.000000 135.130 174.3607
412.000000 135.098 174.8606
418.000000 135.064 175.3003
425.000000 135.018 175.7881
431.000000 134.989 176.2692
437.000000 134.962 176.7268
444.000000 134.933 177.3097
450.000000 134.902 177.7551
455.000000 134.877 178.1267
462.000000 134.847 178.6264
468.000000 134.824 179.1197
475.000000 134.804 179.6500
482.000000 134.780 -179.7975
487.000000 134.759 -179.4149
494.000000 134.734 -178.9345
500.000000 134.716 -178.4758
508.000000 134.695 -177.8515
515.000000 134.676 -177.3207
522.000000 134.658 -176.7690
530.000000 134.636 -176.1863
538.000000 134.619 -175.5821
545.000000 134.605 -175.0474
552.000000 134.591 -174.5147
560.000000 134.576 -173.9241
570.000000 134.559 -173.1600
580.000000 134.546 -172.4276
590.000000 134.535 -171.6801
600.000000 134.522 -170.8992
608.000000 134.512 -170.2971
615.000000 134.506 -169.7593
622.000000 134.499 -169.2202
630.000000 134.494 -168.6330
640.000000 134.489 -167.8641
650.000000 134.489 -167.1213
660.000000 134.490 -166.3569
670.000000 134.490 -165.5486
680.000000 134.498 -164.7951
690.000000 134.507 -164.0558
700.000000 134.521 -163.3226
710.000000 134.534 -162.5435
720.000000 134.549 -161.7761
730.000000 134.569 -161.0023
740.000000 134.585 -160.2404
750.000000 134.607 -159.4880
762.000000 134.635 -158.5718
775.000000 134.665 -157.5607
788.000000 134.702 -156.5719
800.000000 134.746 -155.6969
812.000000 134.791 -154.7984
825.000000 134.843 -153.8242
838.000000 134.900 -152.8767
850.000000 134.957 -152.0085
862.000000 135.022 -151.1461
875.000000 135.095 -150.2526
885.000000 135.155 -149.5664
900.000000 135.252 -148.5788
912.000000 135.328 -147.8086
925.000000 135.421 -146.9769
938.000000 135.506 -146.1840
950.000000 135.592 -145.4681
962.000000 135.681 -144.8159
975.000000 135.776 -144.0898
988.000000 135.875 -143.4285
1000.000000 135.970 -142.8069
1015.000000 136.088 -142.1553
1030.000000 136.206 -141.5187
1044.000000 136.320 -140.9460
1060.000000 136.453 -140.3620
1075.000000 136.574 -139.8414
1090.000000 136.695 -139.3470
1106.000000 136.822 -138.8981
1120.000000 136.927 -138.4945
1138.000000 137.065 -138.0242
1150.000000 137.150 -137.7308
1172.000000 137.311 -137.2379
1180.000000 137.366 -137.0861
1206.000000 137.546 -136.5559
1220.000000 137.635 -136.3061
1241.000000 137.772 -135.9348
1250.000000 137.829 -135.7957
1265.000000 137.919 -135.5515
1280.000000 138.008 -135.3109
1315.000000 138.216 -134.7259
1320.000000 138.242 -134.6556
1340.000000 138.360 -134.3324
1360.000000 138.472 -134.0374
1380.000000 138.590 -133.7628
1400.000000 138.703 -133.4600
1430.000000 138.873 -133.0343
1450.000000 138.979 -132.7584
1475.000000 139.117 -132.4401
1500.000000 139.251 -132.1100
1525.000000 139.386 -131.7767
1550.000000 139.526 -131.5221
1575.000000 139.662 -131.2163
1600.000000 139.802 -130.9402
1625.000000 139.937 -130.6699
1650.000000 140.077 -130.4445
1675.000000 140.220 -130.1846
1700.000000 140.362 -129.9790
1725.000000 140.499 -129.7617
1750.000000 140.647 -129.5747
1775.000000 140.789 -129.4198
1800.000000 140.936 -129.2767
1825.000000 141.081 -129.1506
1850.000000 141.227 -129.0438
1875.000000 141.377 -128.9937
1900.000000 141.528 -128.9507
1925.000000 141.681 -128.9552
1950.000000 141.837 -128.9884
1975.000000 141.989 -129.0491
2000.000000 142.138 -129.1732
2030.000000 142.327 -129.3401
2060.000000 142.515 -129.5809
2090.000000 142.700 -129.9030
2120.000000 142.885 -130.2714
2140.000000 143.007 -130.5529
2180.000000 143.243 -131.2174
2200.000000 143.359 -131.5922
2240.000000 143.591 -132.4532
2270.000000 143.756 -133.1900
2300.000000 143.915 -133.9912
2330.000000 144.068 -134.8950
2360.000000 144.214 -135.8542
2400.000000 144.395 -137.2479
2430.000000 144.522 -138.3838
2470.000000 144.673 -140.0015
2500.000000 144.774 -141.2805
2540.000000 144.888 -143.0640
2580.000000 144.983 -144.9290
2620.000000 145.051 -146.8387
2650.000000 145.090 -148.2871
2690.000000 145.118 -150.2373
2720.000000 145.130 -151.6875
2760.000000 145.124 -153.5990
2800.000000 145.097 -155.4666
2850.000000 145.035 -157.6667
2900.000000 144.953 -159.7489
2950.000000 144.852 -161.6758
3000.000000 144.732 -163.4039
3040.000000 144.629 -164.6453
3070.000000 144.547 -165.5222
3110.000000 144.432 -166.5786
3150.000000 144.316 -167.5083
3200.000000 144.168 -168.5223
3250.000000 144.016 -169.3732
3300.000000 143.867 -170.0729
3350.000000 143.721 -170.6220
3400.000000 143.580 -171.0633
3450.000000 143.449 -171.3839
3500.000000 143.320 -171.6137
3550.000000 143.200 -171.7435
3600.000000 143.093 -171.7953
3650.000000 142.991 -171.7844
3700.000000 142.898 -171.7200
3750.000000 142.819 -171.5689
3820.000000 142.724 -171.3320
3870.000000 142.667 -171.1205
3950.000000 142.598 -170.7367
4000.000000 142.568 -170.4162
4060.000000 142.542 -170.1275
4120.000000 142.532 -169.7892
4180.000000 142.534 -169.4717
4250.000000 142.552 -169.1495
4310.000000 142.581 -168.8909
4370.000000 142.623 -168.6823
4440.000000 142.683 -168.5031
4500.000000 142.743 -168.4306
4550.000000 142.805 -168.4317
4620.000000 142.895 -168.5001
4680.000000 142.981 -168.6928
4750.000000 143.087 -169.0414
4820.000000 143.190 -169.5263
4870.000000 143.263 -169.9792
4940.000000 143.368 -170.7409
5000.000000 143.444 -171.5419
5080.000000 143.537 -172.7879
5150.000000 143.597 -174.0494
5220.000000 143.638 -175.4181
5300.000000 143.653 -177.1270
5380.000000 143.623 -178.9110
5450.000000 143.573 179.5300
5520.000000 143.494 177.9740
5600.000000 143.360 176.3062
5700.000000 143.151 174.3523
5800.000000 142.883 172.7329
5900.000000 142.581 171.4917
6000.000000 142.261 170.7226
6080.000000 142.005 170.3710
6150.000000 141.784 170.1835
6220.000000 141.566 170.1356
6300.000000 141.315 170.2297
6400.000000 141.004 170.4666
6500.000000 140.700 171.0175
6600.000000 140.402 171.7726
6700.000000 140.120 172.7132
6800.000000 139.851 173.8569
6900.000000 139.601 175.1883
7000.000000 139.372 176.7535
7100.000000 139.181 178.4943
7200.000000 139.034 -179.6027
7300.000000 138.915 -177.6119
7400.000000 138.866 -175.5615
7500.000000 138.853 -173.5626
7620.000000 138.911 -171.2055
7750.000000 139.051 -168.9543
7880.000000 139.267 -167.0466
8000.000000 139.543 -165.6548
8120.000000 139.872 -164.7187
8250.000000 140.289 -164.4734
8380.000000 140.749 -165.1555
8500.000000 141.190 -166.8063
8620.000000 141.606 -169.5587
8750.000000 141.963 -173.8446
8850.000000 142.134 -177.9908
9000.000000 142.129 174.8730
9120.000000 141.881 169.0233
9250.000000 141.367 163.3454
9380.000000 140.667 158.8961
9500.000000 139.922 155.9743
9620.000000 139.140 154.2023
9750.000000 138.292 153.4280
9880.000000 137.484 153.6438
10000.000000 136.789 154.5024
10150.000000 135.992 156.3552
10300.000000 135.294 158.8952
10440.000000 134.718 161.5689
10600.000000 134.173 165.0104
10750.000000 133.740 168.5903
10900.000000 133.412 172.3371
11060.000000 133.140 176.2998
11200.000000 132.967 179.9220
11380.000000 132.875 -175.4976
11500.000000 132.859 -172.5012
11720.000000 132.966 -167.1344
11800.000000 133.056 -165.2720
12060.000000 133.463 -159.6878
12200.000000 133.766 -157.0734
12410.000000 134.384 -153.8665
12500.000000 134.683 -152.8412
12650.000000 135.275 -151.7755
12800.000000 135.924 -151.5605
13150.000000 137.606 -156.6304
13200.000000 137.834 -158.1794
13400.000000 138.542 -166.7515
13600.000000 138.640 -178.3534
13800.000000 137.947 170.1145
14000.000000 136.670 161.5641
14300.000000 134.385 155.2783
14500.000000 132.920 154.3704
14750.000000 131.266 155.6055
15000.000000 129.813 158.4182
15250.000000 128.529 162.6017
15500.000000 127.528 167.9308
15750.000000 126.829 174.1197
16000.000000 126.456 -179.0675
16250.000000 126.447 -173.9945
16500.000000 126.701 -170.2369
16750.000000 127.064 -169.0699
17000.000000 127.362 -170.2509
17250.000000 127.403 -173.5466
17500.000000 127.016 -178.7826
17750.000000 125.952 175.8574
18000.000000 123.607 174.0503
18250.000000 121.407 -166.0166
18500.000000 123.546 -154.5727
18750.000000 124.396 -160.1600
19000.000000 124.023 -164.6607
19250.000000 123.265 -167.8623
19500.000000 122.384 -169.6097
