* Measurement data measured by REW V5.30 beta 4
* Source: Microphone (USB Sound Device        ), MICROPHONE (Master Volume), L, volume: 0.660. Timing signal peak level -11.0 dBFS, measurement signal peak level -10.1 dBFS
* Format: 256k Log Swept Sine, 1 sweep at -12.0 dBFS using an acoustic timing reference
* Dated: Dec 15, 2023 2:16:00 PM
* REW Settings:
*  C-weighting compensation: Off
*  Target level: 75.0 dB
* Note: Delay -0.0195 ms (-6.7 mm, -0.26 in) using estimated IR delay relative to Acoustic reference played from SPEAKER L with no timing offset
* Measurement: L EA1000 RED FOAM Dec 15
* Smoothing: None
* Frequency Step: 1/48 octave
* Start Frequency: 1.000 Hz
*
* Freq(Hz) SPL(dB) Phase(degrees)
1.000000 129.172 104.5153
1.015000 129.020 103.1784
1.030000 128.864 101.8191
1.044000 128.716 100.5288
1.060000 128.543 99.0271
1.075000 128.378 97.5913
1.090000 128.209 96.1270
1.106000 128.025 94.5365
1.120000 127.859 93.1442
1.138000 127.637 91.3568
1.150000 127.484 90.1645
1.172000 127.196 87.9709
1.180000 127.089 87.1693
1.206000 126.732 84.5418
1.220000 126.535 83.1088
1.241000 126.236 80.9285
1.250000 126.106 79.9810
1.265000 125.888 78.3819
1.280000 125.669 76.7551
1.315000 125.154 72.8342
1.320000 125.081 72.2581
1.340000 124.787 69.9092
1.360000 124.495 67.4836
1.380000 124.206 64.9739
1.400000 123.921 62.3727
1.430000 123.504 58.2834
1.450000 123.234 55.4214
1.475000 122.906 51.6716
1.500000 122.571 47.6726
1.525000 122.225 43.4397
1.550000 121.873 39.0052
1.575000 121.520 34.4015
1.600000 121.167 29.6610
1.625000 120.819 24.8158
1.650000 120.480 19.8984
1.675000 120.153 14.9410
1.700000 119.842 9.9760
1.725000 119.550 5.0358
1.750000 119.282 0.1526
1.775000 119.040 -4.6412
1.800000 118.829 -9.3133
1.825000 118.652 -13.8313
1.850000 118.515 -18.2378
1.875000 118.424 -22.6847
1.900000 118.373 -27.1590
1.925000 118.356 -31.6404
1.950000 118.366 -36.1084
1.975000 118.398 -40.5426
2.000000 118.445 -44.9227
2.030000 118.514 -50.0784
2.060000 118.585 -55.0913
2.090000 118.649 -59.9262
2.120000 118.695 -64.5478
2.140000 118.710 -67.4929
2.180000 118.690 -73.0098
2.200000 118.648 -75.5619
2.240000 118.567 -80.4925
2.270000 118.520 -84.0807
2.300000 118.476 -87.5337
2.330000 118.424 -90.8147
2.360000 118.356 -93.8865
2.400000 118.225 -97.5933
2.430000 118.084 -100.0338
2.470000 117.821 -102.7644
2.500000 117.556 -104.3722
2.540000 117.096 -105.8585
2.580000 116.473 -106.5419
2.620000 115.534 -106.6064
2.650000 114.653 -106.2723
2.690000 113.327 -105.3017
2.720000 112.276 -104.1694
2.760000 110.883 -102.1053
2.800000 109.594 -99.3900
2.850000 108.289 -95.0512
2.900000 107.513 -89.6278
2.950000 107.458 -82.8824
3.000000 108.111 -73.3517
3.040000 109.027 -64.1011
3.070000 109.885 -56.5823
3.110000 111.188 -46.2319
3.150000 112.592 -36.0232
3.200000 114.352 -24.3153
3.250000 115.960 -14.7982
3.300000 117.244 -8.5623
3.350000 118.311 -5.6958
3.400000 119.315 -5.3149
3.450000 120.257 -6.7816
3.500000 121.135 -9.4577
3.550000 121.950 -12.7052
3.600000 122.699 -15.8860
3.650000 123.384 -18.3621
3.700000 123.994 -20.0188
3.750000 124.518 -21.7680
3.820000 125.131 -24.3623
3.870000 125.501 -26.2547
3.950000 126.013 -29.2193
4.000000 126.303 -30.9586
4.060000 126.634 -32.8848
4.120000 126.910 -34.7551
4.180000 127.136 -36.5621
4.250000 127.349 -38.5471
4.310000 127.501 -40.1059
4.370000 127.638 -41.4988
4.440000 127.778 -42.8942
4.500000 127.861 -43.9326
4.550000 127.910 -44.6877
4.620000 127.960 -45.5722
4.680000 127.998 -46.1664
4.750000 128.053 -46.6634
4.820000 128.116 -46.9035
4.870000 128.155 -46.8975
4.940000 128.207 -46.7046
5.000000 128.259 -46.4257
5.080000 128.355 -45.9880
5.150000 128.475 -45.6169
5.220000 128.626 -45.1220
5.300000 128.827 -44.4402
5.380000 129.053 -43.7709
5.450000 129.264 -43.3075
5.520000 129.484 -43.0444
5.600000 129.764 -42.8997
5.700000 130.139 -42.9132
5.800000 130.515 -43.1571
5.900000 130.862 -43.6557
6.000000 131.199 -44.4618
6.080000 131.458 -45.2662
6.150000 131.672 -46.0331
6.220000 131.870 -46.8151
6.300000 132.074 -47.7521
6.400000 132.302 -49.0411
6.500000 132.504 -50.3612
6.600000 132.686 -51.6057
6.700000 132.842 -52.7863
6.800000 132.973 -53.9292
6.900000 133.093 -54.9913
7.000000 133.211 -55.9321
7.100000 133.318 -56.7530
7.200000 133.420 -57.4835
7.300000 133.529 -58.1521
7.400000 133.648 -58.7586
7.500000 133.774 -59.2791
7.620000 133.934 -59.8709
7.750000 134.123 -60.5653
7.880000 134.331 -61.2734
8.000000 134.531 -61.9759
8.120000 134.730 -62.7750
8.250000 134.951 -63.7377
8.380000 135.168 -64.7700
8.500000 135.357 -65.7737
8.620000 135.538 -66.8418
8.750000 135.725 -68.0142
8.850000 135.859 -68.8967
9.000000 136.045 -70.2223
9.120000 136.186 -71.2492
9.250000 136.333 -72.2971
9.380000 136.472 -73.2932
9.500000 136.599 -74.1694
9.620000 136.727 -74.9992
9.750000 136.865 -75.8476
9.880000 137.004 -76.6724
10.000000 137.136 -77.4195
10.150000 137.302 -78.3296
10.300000 137.468 -79.2442
10.440000 137.622 -80.1045
10.600000 137.795 -81.0888
10.750000 137.952 -82.0158
10.900000 138.103 -82.9418
11.060000 138.258 -83.9081
11.200000 138.386 -84.7381
11.380000 138.546 -85.7719
11.500000 138.649 -86.4354
11.720000 138.831 -87.6106
11.800000 138.896 -88.0257
12.060000 139.102 -89.3354
12.200000 139.210 -90.0297
12.410000 139.368 -91.0568
12.500000 139.433 -91.4952
12.650000 139.539 -92.2237
12.800000 139.641 -92.9453
13.150000 139.862 -94.5938
13.200000 139.892 -94.8235
13.400000 140.008 -95.7259
13.600000 140.120 -96.6065
13.800000 140.227 -97.4644
14.000000 140.333 -98.3147
14.300000 140.486 -99.5841
14.500000 140.584 -100.4389
14.750000 140.700 -101.5125
15.000000 140.808 -102.5875
15.250000 140.908 -103.6464
15.500000 141.003 -104.6792
15.750000 141.094 -105.6832
16.000000 141.184 -106.6620
16.250000 141.274 -107.6308
16.500000 141.364 -108.5965
16.750000 141.452 -109.5681
17.000000 141.536 -110.5402
17.250000 141.617 -111.5057
17.500000 141.694 -112.4544
17.750000 141.768 -113.3767
18.000000 141.840 -114.2724
18.250000 141.911 -115.1419
18.500000 141.981 -115.9924
18.750000 142.051 -116.8270
19.000000 142.119 -117.6483
19.250000 142.184 -118.4551
19.500000 142.247 -119.2451
19.750000 142.308 -120.0171
20.000000 142.367 -120.7708
20.299999 142.435 -121.6551
20.600000 142.499 -122.5207
20.900000 142.560 -123.3697
21.200001 142.617 -124.2009
21.400000 142.652 -124.7432
21.799999 142.720 -125.8004
22.000000 142.751 -126.3173
22.400000 142.813 -127.3370
22.700001 142.856 -128.0963
23.000000 142.897 -128.8532
23.299999 142.934 -129.6030
23.600000 142.968 -130.3407
24.000000 143.011 -131.3011
24.299999 143.041 -132.0066
24.700001 143.082 -132.9361
25.000000 143.112 -133.6289
25.400000 143.150 -134.5453
25.799999 143.186 -135.4454
26.200001 143.221 -136.3240
26.500000 143.246 -136.9705
26.900000 143.280 -137.8192
27.200001 143.304 -138.4459
27.600000 143.334 -139.2640
28.000000 143.362 -140.0568
28.500000 143.395 -141.0126
29.000000 143.427 -141.9404
29.500000 143.456 -142.8469
30.000000 143.482 -143.7311
30.400000 143.500 -144.4231
30.700001 143.512 -144.9351
31.100000 143.527 -145.6100
31.500000 143.539 -146.2742
32.000000 143.552 -147.0847
32.500000 143.563 -147.8738
33.000000 143.574 -148.6500
33.500000 143.584 -149.4190
34.000000 143.593 -150.1780
34.500000 143.601 -150.9218
35.000000 143.608 -151.6482
35.500000 143.615 -152.3576
36.000000 143.622 -153.0529
36.500000 143.628 -153.7381
37.000000 143.632 -154.4123
37.500000 143.634 -155.0681
38.200001 143.636 -155.9483
38.700001 143.638 -156.5619
39.500000 143.638 -157.5387
40.000000 143.635 -158.1337
40.599998 143.631 -158.8219
41.200001 143.627 -159.4958
41.799999 143.622 -160.1648
42.500000 143.615 -160.9291
43.099998 143.609 -161.5663
43.700001 143.602 -162.1951
44.400002 143.592 -162.9172
45.000000 143.582 -163.5151
45.500000 143.574 -163.9977
46.200001 143.565 -164.6646
46.799999 143.556 -165.2397
47.500000 143.542 -165.9019
48.200001 143.526 -166.5333
48.700001 143.516 -166.9693
49.400002 143.503 -167.5742
50.000000 143.490 -168.0863
50.799999 143.472 -168.7470
51.500000 143.457 -169.3043
52.200001 143.442 -169.8494
53.000000 143.424 -170.4669
53.799999 143.403 -171.0696
54.500000 143.383 -171.5720
55.200001 143.365 -172.0660
56.000000 143.344 -172.6373
57.000000 143.314 -173.3368
58.000000 143.284 -173.9995
59.000000 143.257 -174.6465
60.000000 143.230 -175.3059
60.799999 143.204 -175.8150
61.500000 143.180 -176.2244
62.200001 143.160 -176.6174
63.000000 143.138 -177.0820
64.000000 143.105 -177.6634
65.000000 143.071 -178.1992
66.000000 143.040 -178.7230
67.000000 143.009 -179.2434
68.000000 142.978 -179.7656
69.000000 142.944 179.7329
70.000000 142.910 179.2521
71.000000 142.876 178.7893
72.000000 142.843 178.3438
73.000000 142.810 177.8972
74.000000 142.777 177.4599
75.000000 142.742 177.0319
76.199997 142.700 176.5421
77.500000 142.656 176.0197
78.800003 142.611 175.5253
80.000000 142.571 175.0743
81.199997 142.528 174.6411
82.500000 142.484 174.1923
83.800003 142.439 173.7563
85.000000 142.398 173.3661
86.199997 142.356 172.9825
87.500000 142.310 172.5789
88.500000 142.274 172.2778
90.000000 142.222 171.8373
91.199997 142.180 171.5108
92.500000 142.136 171.1593
93.800003 142.092 170.8271
95.000000 142.051 170.5241
96.199997 142.011 170.2292
97.500000 141.966 169.9174
98.800003 141.923 169.6160
100.000000 141.882 169.3372
101.500000 141.831 169.0100
103.000000 141.780 168.6947
104.400002 141.732 168.4206
106.000000 141.681 168.1135
107.500000 141.631 167.8275
109.000000 141.580 167.5547
110.599998 141.525 167.2842
112.000000 141.480 167.0588
113.800003 141.421 166.7816
115.000000 141.383 166.5937
117.199997 141.313 166.2775
118.000000 141.286 166.1698
120.599998 141.201 165.8346
122.000000 141.159 165.6426
124.099998 141.091 165.3859
125.000000 141.062 165.2804
126.500000 141.017 165.1208
128.000000 140.972 164.9626
131.500000 140.864 164.6206
132.000000 140.848 164.5798
134.000000 140.789 164.4148
136.000000 140.729 164.2497
138.000000 140.671 164.1052
140.000000 140.612 163.9523
143.000000 140.525 163.7610
145.000000 140.469 163.6304
147.500000 140.400 163.4986
150.000000 140.332 163.3686
152.500000 140.265 163.2605
155.000000 140.198 163.1751
157.500000 140.133 163.0822
160.000000 140.070 163.0016
162.500000 140.006 162.9336
165.000000 139.945 162.8810
167.500000 139.884 162.8418
170.000000 139.823 162.7918
172.500000 139.764 162.7604
175.000000 139.706 162.7392
177.500000 139.649 162.7220
180.000000 139.591 162.7161
182.500000 139.532 162.7232
185.000000 139.478 162.7338
187.500000 139.423 162.7444
190.000000 139.368 162.7861
192.500000 139.314 162.8024
195.000000 139.262 162.8294
197.500000 139.208 162.8672
200.000000 139.156 162.9308
203.000000 139.096 162.9974
206.000000 139.037 163.0699
209.000000 138.977 163.1423
212.000000 138.920 163.2338
214.000000 138.884 163.2956
218.000000 138.808 163.4227
220.000000 138.771 163.4899
224.000000 138.701 163.6132
227.000000 138.651 163.7243
230.000000 138.600 163.8470
233.000000 138.551 163.9646
236.000000 138.506 164.0898
240.000000 138.440 164.2632
243.000000 138.395 164.3944
247.000000 138.332 164.5818
250.000000 138.286 164.7243
254.000000 138.227 164.9193
258.000000 138.170 165.1187
262.000000 138.114 165.3274
265.000000 138.074 165.4922
269.000000 138.016 165.7151
272.000000 137.979 165.8723
276.000000 137.930 166.0916
280.000000 137.877 166.3082
285.000000 137.817 166.5972
290.000000 137.759 166.8869
295.000000 137.703 167.1901
300.000000 137.648 167.4908
304.000000 137.606 167.7227
307.000000 137.574 167.9193
311.000000 137.532 168.1578
315.000000 137.494 168.3963
320.000000 137.445 168.7054
325.000000 137.399 169.0377
330.000000 137.352 169.3594
335.000000 137.303 169.6917
340.000000 137.263 169.9987
345.000000 137.221 170.3199
350.000000 137.181 170.6669
355.000000 137.138 170.9739
360.000000 137.102 171.3096
365.000000 137.066 171.6454
370.000000 137.029 171.9785
375.000000 136.992 172.3287
382.000000 136.946 172.7748
387.000000 136.916 173.1041
395.000000 136.867 173.6649
400.000000 136.837 173.9991
406.000000 136.804 174.4141
412.000000 136.769 174.8105
418.000000 136.736 175.2101
425.000000 136.699 175.6958
431.000000 136.668 176.1097
437.000000 136.641 176.5201
444.000000 136.608 176.9818
450.000000 136.583 177.4132
455.000000 136.560 177.7483
462.000000 136.531 178.2203
468.000000 136.511 178.6553
475.000000 136.481 179.1288
482.000000 136.458 179.6232
487.000000 136.442 179.9704
494.000000 136.421 -179.5486
500.000000 136.407 -179.1221
508.000000 136.385 -178.5843
515.000000 136.365 -178.1006
522.000000 136.354 -177.6263
530.000000 136.337 -177.0543
538.000000 136.320 -176.4978
545.000000 136.306 -176.0152
552.000000 136.296 -175.5174
560.000000 136.284 -174.9757
570.000000 136.271 -174.2707
580.000000 136.262 -173.5760
590.000000 136.253 -172.8860
600.000000 136.244 -172.1642
608.000000 136.241 -171.6237
615.000000 136.240 -171.1379
622.000000 136.242 -170.6453
630.000000 136.241 -170.0993
640.000000 136.243 -169.3939
650.000000 136.250 -168.7296
660.000000 136.259 -168.0625
670.000000 136.268 -167.3594
680.000000 136.280 -166.6801
690.000000 136.294 -166.0209
700.000000 136.308 -165.3741
710.000000 136.326 -164.6837
720.000000 136.344 -164.0137
730.000000 136.365 -163.3273
740.000000 136.387 -162.6634
750.000000 136.412 -162.0039
762.000000 136.451 -161.2038
775.000000 136.491 -160.3474
788.000000 136.535 -159.4815
800.000000 136.582 -158.7021
812.000000 136.637 -157.9436
825.000000 136.699 -157.1071
838.000000 136.768 -156.2931
850.000000 136.839 -155.5665
862.000000 136.916 -154.8403
875.000000 137.013 -154.1409
885.000000 137.094 -153.6743
900.000000 137.238 -153.0779
912.000000 137.354 -152.7115
925.000000 137.517 -153.2619
938.000000 137.626 -152.0422
950.000000 137.733 -157.6482
962.000000 136.790 -155.8292
975.000000 136.782 -150.8889
988.000000 137.072 -148.5466
1000.000000 137.308 -147.5557
1015.000000 137.524 -146.6319
1030.000000 137.689 -145.8635
1044.000000 137.821 -145.3432
1060.000000 137.969 -144.8244
1075.000000 138.097 -144.3525
1090.000000 138.232 -143.9471
1106.000000 138.362 -143.5668
1120.000000 138.477 -143.2431
1138.000000 138.622 -142.8797
1150.000000 138.716 -142.6373
1172.000000 138.894 -142.3863
1180.000000 138.955 -142.3999
1206.000000 139.063 -142.2512
1220.000000 139.139 -141.9115
1241.000000 139.273 -141.4910
1250.000000 139.332 -141.3537
1265.000000 139.428 -141.1174
1280.000000 139.519 -140.9315
1315.000000 139.720 -140.5668
1320.000000 139.749 -140.5071
1340.000000 139.858 -140.3014
1360.000000 139.967 -140.1175
1380.000000 140.069 -139.9353
1400.000000 140.178 -139.7397
1430.000000 140.329 -139.4816
1450.000000 140.432 -139.3114
1475.000000 140.557 -139.0963
1500.000000 140.680 -138.8972
1525.000000 140.802 -138.7164
1550.000000 140.928 -138.5101
1575.000000 141.050 -138.3287
1600.000000 141.175 -138.1581
1625.000000 141.298 -137.9952
1650.000000 141.424 -137.8554
1675.000000 141.549 -137.7224
1700.000000 141.678 -137.6178
1725.000000 141.805 -137.5227
1750.000000 141.935 -137.4402
1775.000000 142.067 -137.3925
1800.000000 142.197 -137.3648
1825.000000 142.331 -137.3583
1850.000000 142.461 -137.3690
1875.000000 142.593 -137.4252
1900.000000 142.730 -137.4893
1925.000000 142.867 -137.6100
1950.000000 142.999 -137.7561
1975.000000 143.134 -137.9212
2000.000000 143.275 -138.1543
2030.000000 143.438 -138.4812
2060.000000 143.602 -138.9064
2090.000000 143.767 -139.4073
2120.000000 143.924 -139.9957
2140.000000 144.026 -140.4529
2180.000000 144.222 -141.4865
2200.000000 144.312 -142.0528
2240.000000 144.477 -143.3150
2270.000000 144.589 -144.3158
2300.000000 144.689 -145.3534
2330.000000 144.777 -146.4214
2360.000000 144.852 -147.5047
2400.000000 144.938 -148.9886
2430.000000 144.993 -150.1054
2470.000000 145.054 -151.6010
2500.000000 145.090 -152.7549
2540.000000 145.127 -154.2663
2580.000000 145.149 -155.7902
2620.000000 145.160 -157.2851
2650.000000 145.162 -158.4035
2690.000000 145.154 -159.8767
2720.000000 145.137 -160.9266
2760.000000 145.104 -162.3179
2800.000000 145.067 -163.6464
2850.000000 145.007 -165.2385
2900.000000 144.932 -166.7016
2950.000000 144.849 -168.0693
3000.000000 144.759 -169.3207
3040.000000 144.682 -170.2247
3070.000000 144.622 -170.8615
3110.000000 144.540 -171.6497
3150.000000 144.458 -172.3791
3200.000000 144.354 -173.1770
3250.000000 144.251 -173.8875
3300.000000 144.151 -174.5042
3350.000000 144.052 -175.0032
3400.000000 143.956 -175.4664
3450.000000 143.868 -175.8463
3500.000000 143.783 -176.1716
3550.000000 143.704 -176.4321
3600.000000 143.628 -176.6279
3650.000000 143.562 -176.7941
3700.000000 143.501 -176.9254
3750.000000 143.444 -177.0154
3820.000000 143.380 -177.1310
3870.000000 143.339 -177.1726
3950.000000 143.285 -177.2467
4000.000000 143.260 -177.2463
4060.000000 143.235 -177.2943
4120.000000 143.224 -177.3868
4180.000000 143.217 -177.4387
4250.000000 143.214 -177.5538
4310.000000 143.225 -177.7019
4370.000000 143.240 -177.9123
4440.000000 143.256 -178.1651
4500.000000 143.273 -178.4394
4550.000000 143.292 -178.7292
4620.000000 143.323 -179.2175
4680.000000 143.343 -179.6602
4750.000000 143.364 179.7341
4820.000000 143.378 179.0122
4870.000000 143.385 178.4801
4940.000000 143.383 177.6666
5000.000000 143.372 176.9025
5080.000000 143.344 175.8684
5150.000000 143.301 174.9261
5220.000000 143.241 173.9586
5300.000000 143.151 172.8806
5380.000000 143.038 171.8386
5450.000000 142.919 170.9896
5520.000000 142.788 170.2018
5600.000000 142.618 169.4440
5700.000000 142.372 168.6328
5800.000000 142.112 168.0663
5900.000000 141.822 167.7248
6000.000000 141.506 167.6357
6080.000000 141.215 167.7346
6150.000000 140.898 168.1359
6220.000000 140.463 169.5248
6300.000000 140.396 176.1119
6400.000000 140.941 173.8862
6500.000000 140.646 174.5915
6600.000000 140.699 174.5757
6700.000000 140.510 174.7479
6800.000000 140.351 175.6160
6900.000000 140.238 176.7013
7000.000000 140.143 177.8437
7100.000000 140.117 179.0457
7200.000000 140.123 -179.8354
7300.000000 140.156 -178.8128
7400.000000 140.226 -177.9432
7500.000000 140.323 -177.2518
7620.000000 140.484 -176.7197
7750.000000 140.701 -176.5977
7880.000000 140.938 -177.1595
8000.000000 141.191 -178.2988
8120.000000 141.393 179.7251
8250.000000 141.573 176.7825
8380.000000 141.642 172.9818
8500.000000 141.569 168.9503
8620.000000 141.338 164.7747
8750.000000 140.925 160.4506
8850.000000 140.488 157.5700
9000.000000 139.698 154.2587
9120.000000 139.007 152.5275
9250.000000 138.222 151.6296
9380.000000 137.449 151.5898
9500.000000 136.746 152.2216
9620.000000 136.089 153.3720
9750.000000 135.427 155.2112
9880.000000 134.826 157.4640
10000.000000 134.320 159.7919
10150.000000 133.762 163.1562
10300.000000 133.290 166.7195
10440.000000 132.908 170.3612
10600.000000 132.572 174.5948
10750.000000 132.322 178.7736
10900.000000 132.135 -177.0957
11060.000000 132.016 -172.5353
11200.000000 131.979 -168.6607
11380.000000 132.002 -163.6416
11500.000000 132.049 -160.1996
11720.000000 132.246 -153.6267
11800.000000 132.362 -151.1751
12060.000000 132.985 -143.4013
12200.000000 133.450 -139.4027
12410.000000 134.380 -134.1708
12500.000000 134.856 -132.1130
12650.000000 135.774 -129.2858
12800.000000 136.879 -127.4603
13150.000000 140.226 -131.1819
13200.000000 140.765 -133.3127
13400.000000 142.598 -148.5235
13600.000000 142.767 -171.2784
13800.000000 141.299 171.6299
14000.000000 139.371 162.8028
14300.000000 136.790 158.7462
14500.000000 135.325 158.7580
14750.000000 133.780 161.1465
15000.000000 132.599 164.8298
15250.000000 131.767 169.2328
15500.000000 131.201 173.2742
15750.000000 130.922 177.0837
16000.000000 130.866 -179.7747
16250.000000 131.205 -178.3609
16500.000000 131.411 179.5711
16750.000000 131.435 176.2646
17000.000000 131.222 171.7397
17250.000000 130.677 166.7438
17500.000000 129.775 162.5895
17750.000000 128.651 160.0410
18000.000000 127.459 158.8164
18250.000000 126.113 158.5557
18500.000000 124.495 159.4112
18750.000000 122.080 167.1923
19000.000000 122.803 -174.4808
19250.000000 123.742 -178.6845
19500.000000 123.301 174.8314
