* Measurement data measured by REW V5.20.13
* Source: C:\Users\marcu\OneDrive\Desktop\audio_db\Simgot EN1000 - n.Olina - Foam L.txt
* Format: Comma/Tab/Space delimited data
* Dated: May 29, 2023 8:27:35 AM
* REW Settings:
*  C-weighting compensation: Off
*  Target level: 75.0 dB
* Note: ; Measurement imported from C:\Users\marcu\OneDrive\Desktop\audio_db\Simgot EN1000 - n.Olina - Foam L.txt Format: Comma/Tab/Space delimited data 54613 values loaded, 0 Hz to 20,000 Hz 
* Measurement: Limgot EN1000 - n.Olina - Foa
* Smoothing: None
* Frequency Step: 1/48 octave
* Start Frequency: 1.000 Hz
*
* Freq(Hz)	SPL(dB)	Phase(degrees)
1.000000	60.788	120.3224
1.015000	60.623	119.3647
1.030000	60.452	118.3978
1.044000	60.288	117.4862
1.060000	60.094	116.4330
1.075000	59.906	115.4337
1.090000	59.712	114.4223
1.106000	59.498	113.3389
1.120000	59.310	112.4384
1.138000	59.068	111.3498
1.150000	58.905	110.6600
1.172000	58.604	109.4521
1.180000	58.493	109.0265
1.206000	58.126	107.6708
1.220000	57.923	106.9458
1.241000	57.612	105.8445
1.250000	57.475	105.3620
1.265000	57.242	104.5364
1.280000	57.003	103.6758
1.315000	56.417	101.4800
1.320000	56.329	101.1398
1.340000	55.970	99.6991
1.360000	55.594	98.1139
1.380000	55.199	96.3621
1.400000	54.785	94.4219
1.430000	54.123	91.1101
1.450000	53.654	88.6025
1.475000	53.024	85.0999
1.500000	52.283	81.2406
1.525000	51.437	77.0627
1.550000	50.508	72.5914
1.575000	49.519	67.8522
1.600000	48.492	62.8705
1.625000	47.451	57.6714
1.650000	46.418	52.2804
1.675000	45.415	46.7227
1.700000	44.465	41.0238
1.725000	43.592	35.2090
1.750000	42.818	29.3036
1.775000	42.165	23.3329
1.800000	41.657	17.3223
1.825000	41.316	11.2970
1.850000	41.160	5.1156
1.875000	41.177	-1.5569
1.900000	41.346	-8.6408
1.925000	41.645	-16.0386
1.950000	42.052	-23.6530
1.975000	42.547	-31.3863
2.000000	43.107	-39.1412
2.030000	43.835	-48.3383
2.060000	44.589	-57.2576
2.090000	45.332	-65.7309
2.120000	46.026	-73.5896
2.140000	46.444	-78.4041
2.180000	47.120	-86.7897
2.200000	47.357	-90.2623
2.240000	47.745	-95.9779
2.270000	48.000	-99.3721
2.300000	48.226	-102.0954
2.330000	48.421	-104.2327
2.360000	48.587	-105.8687
2.400000	48.760	-107.4167
2.430000	48.854	-108.2126
2.470000	48.932	-108.9481
2.500000	48.955	-109.3653
2.540000	48.937	-109.9036
2.580000	48.856	-110.5660
2.620000	48.648	-111.1231
2.650000	48.417	-111.3926
2.690000	48.037	-111.5049
2.720000	47.718	-111.3703
2.760000	47.272	-110.8500
2.800000	46.836	-109.8839
2.850000	46.356	-107.9560
2.900000	46.013	-105.1159
2.950000	45.858	-101.1496
3.000000	45.805	-95.3371
3.040000	45.817	-89.6040
3.070000	45.859	-84.8840
3.110000	45.960	-78.2888
3.150000	46.113	-71.6440
3.200000	46.380	-63.7593
3.250000	46.733	-56.9302
3.300000	47.175	-51.7823
3.350000	47.769	-48.1241
3.400000	48.521	-45.4154
3.450000	49.377	-43.4919
3.500000	50.284	-42.1891
3.550000	51.187	-41.3430
3.600000	52.032	-40.7892
3.650000	52.764	-40.3633
3.700000	53.369	-40.1042
3.750000	53.914	-40.3529
3.820000	54.591	-41.3586
3.870000	55.023	-42.3826
3.950000	55.639	-44.2161
4.000000	55.986	-45.2956
4.060000	56.369	-46.4016
4.120000	56.695	-47.5827
4.180000	56.968	-48.8376
4.250000	57.234	-50.3159
4.310000	57.428	-51.5274
4.370000	57.600	-52.6250
4.440000	57.777	-53.7320
4.500000	57.888	-54.6158
4.550000	57.958	-55.2988
4.620000	58.031	-56.1495
4.680000	58.080	-56.7587
4.750000	58.137	-57.3008
4.820000	58.187	-57.6335
4.870000	58.209	-57.7489
4.940000	58.228	-57.7696
5.000000	58.244	-57.6832
5.080000	58.279	-57.4630
5.150000	58.335	-57.2025
5.220000	58.406	-56.7821
5.300000	58.501	-56.1508
5.380000	58.612	-55.4769
5.450000	58.726	-54.9495
5.520000	58.857	-54.5515
5.600000	59.034	-54.1486
5.700000	59.285	-53.7321
5.800000	59.545	-53.5015
5.900000	59.795	-53.5479
6.000000	60.051	-53.8737
6.080000	60.254	-54.2877
6.150000	60.424	-54.7299
6.220000	60.580	-55.2210
6.300000	60.741	-55.8676
6.400000	60.925	-56.8340
6.500000	61.088	-57.8786
6.600000	61.230	-58.8974
6.700000	61.346	-59.9117
6.800000	61.440	-60.9398
6.900000	61.521	-61.9195
7.000000	61.597	-62.7956
7.100000	61.659	-63.5878
7.200000	61.714	-64.3100
7.300000	61.774	-64.9668
7.400000	61.844	-65.5466
7.500000	61.918	-66.0397
7.620000	62.016	-66.5853
7.750000	62.143	-67.1947
7.880000	62.292	-67.7816
8.000000	62.443	-68.3563
8.120000	62.601	-69.0228
8.250000	62.786	-69.8266
8.380000	62.975	-70.7053
8.500000	63.145	-71.5888
8.620000	63.313	-72.5494
8.750000	63.490	-73.6255
8.850000	63.619	-74.4530
9.000000	63.801	-75.7264
9.120000	63.941	-76.7275
9.250000	64.086	-77.7597
9.380000	64.223	-78.7563
9.500000	64.347	-79.6300
9.620000	64.471	-80.4476
9.750000	64.605	-81.2781
9.880000	64.731	-82.0639
10.000000	64.837	-82.7500
10.150000	64.961	-83.5561
10.300000	65.082	-84.3327
10.440000	65.192	-85.0292
10.600000	65.315	-85.7998
10.750000	65.430	-86.5070
10.900000	65.544	-87.1962
11.060000	65.664	-87.9133
11.200000	65.766	-88.5251
11.380000	65.893	-89.2929
11.500000	65.976	-89.7924
11.720000	66.121	-90.6882
11.800000	66.171	-91.0097
12.060000	66.328	-92.0364
12.200000	66.404	-92.5807
12.410000	66.512	-93.3820
12.500000	66.561	-93.7155
12.650000	66.645	-94.2610
12.800000	66.729	-94.7846
13.150000	66.905	-95.8996
13.200000	66.929	-96.0473
13.400000	67.022	-96.6038
13.600000	67.116	-97.1324
13.800000	67.210	-97.6380
14.000000	67.305	-98.1569
14.300000	67.449	-98.9789
14.500000	67.543	-99.5799
14.750000	67.652	-100.3785
15.000000	67.751	-101.2198
15.250000	67.838	-102.0662
15.500000	67.917	-102.8909
15.750000	67.991	-103.6822
16.000000	68.069	-104.4353
16.250000	68.155	-105.1726
16.500000	68.249	-105.9090
16.750000	68.346	-106.6671
17.000000	68.445	-107.4557
17.250000	68.544	-108.2709
17.500000	68.637	-109.1051
17.750000	68.725	-109.9348
18.000000	68.809	-110.7457
18.250000	68.888	-111.5221
18.500000	68.965	-112.2510
18.750000	69.042	-112.9338
19.000000	69.119	-113.5721
19.250000	69.201	-114.1816
19.500000	69.285	-114.7794
19.750000	69.372	-115.3791
20.000000	69.459	-115.9980
20.299999	69.559	-116.7636
20.600000	69.650	-117.5395
20.900000	69.729	-118.2957
21.200001	69.797	-118.9954
21.400000	69.840	-119.4179
21.799999	69.927	-120.1709
22.000000	69.975	-120.5186
22.400000	70.080	-121.2156
22.700001	70.165	-121.7869
23.000000	70.250	-122.4249
23.299999	70.329	-123.1214
23.600000	70.401	-123.8549
24.000000	70.481	-124.8486
24.299999	70.533	-125.5754
24.700001	70.593	-126.4924
25.000000	70.635	-127.1307
25.400000	70.693	-127.9146
25.799999	70.757	-128.6460
26.200001	70.828	-129.3735
26.500000	70.883	-129.9420
26.900000	70.949	-130.7287
27.200001	70.988	-131.3062
27.600000	71.028	-131.9905
28.000000	71.066	-132.5198
28.500000	71.132	-133.0123
29.000000	71.230	-133.5368
29.500000	71.336	-134.2728
30.000000	71.415	-135.1752
30.400000	71.453	-135.8841
30.700001	71.472	-136.3563
31.100000	71.497	-136.9070
31.500000	71.529	-137.4202
32.000000	71.575	-138.1004
32.500000	71.618	-138.8454
33.000000	71.652	-139.5955
33.500000	71.682	-140.3071
34.000000	71.717	-140.9938
34.500000	71.755	-141.6839
35.000000	71.795	-142.3808
35.500000	71.834	-143.0834
36.000000	71.871	-143.7983
36.500000	71.899	-144.5036
37.000000	71.916	-145.1264
37.500000	71.938	-145.6151
38.200001	72.001	-146.2154
38.700001	72.067	-146.7854
39.500000	72.134	-148.0084
40.000000	72.138	-148.7289
40.599998	72.132	-149.3481
41.200001	72.149	-149.8018
41.799999	72.191	-150.3245
42.500000	72.233	-151.1023
43.099998	72.248	-151.7634
43.700001	72.258	-152.3249
44.400002	72.280	-152.9242
45.000000	72.303	-153.4718
45.500000	72.320	-153.9461
46.200001	72.338	-154.5935
46.799999	72.354	-155.1382
47.500000	72.372	-155.7966
48.200001	72.383	-156.4528
48.700001	72.389	-156.8939
49.400002	72.401	-157.4811
50.000000	72.414	-157.9844
50.799999	72.432	-158.6663
51.500000	72.445	-159.2572
52.200001	72.453	-159.8194
53.000000	72.464	-160.4246
53.799999	72.472	-161.0231
54.500000	72.475	-161.5081
55.200001	72.483	-161.9404
56.000000	72.502	-162.4913
57.000000	72.510	-163.2295
58.000000	72.524	-163.8796
59.000000	72.529	-164.6690
60.000000	72.510	-165.2312
60.799999	72.524	-165.6422
61.500000	72.530	-166.1553
62.200001	72.515	-166.6247
63.000000	72.502	-167.0315
64.000000	72.498	-167.5890
65.000000	72.487	-168.1504
66.000000	72.482	-168.7164
67.000000	72.470	-169.2953
68.000000	72.455	-169.8092
69.000000	72.444	-170.2584
70.000000	72.440	-170.7054
71.000000	72.435	-171.2191
72.000000	72.416	-171.7353
73.000000	72.398	-172.2128
74.000000	72.383	-172.7163
75.000000	72.366	-173.2335
76.199997	72.334	-173.8525
77.500000	72.302	-174.2907
78.800003	72.295	-174.7543
80.000000	72.293	-175.1729
81.199997	72.293	-175.7464
82.500000	72.263	-176.3532
83.800003	72.239	-176.8278
85.000000	72.223	-177.3421
86.199997	72.188	-177.8100
87.500000	72.163	-178.1883
88.500000	72.146	-178.5170
90.000000	72.116	-178.9600
91.199997	72.096	-179.3468
92.500000	72.061	-179.7895
93.800003	72.027	179.8491
95.000000	72.004	179.4846
96.199997	71.977	179.1124
97.500000	71.949	178.7223
98.800003	71.920	178.3559
100.000000	71.894	178.0392
101.500000	71.861	177.6299
103.000000	71.823	177.2615
104.400002	71.791	176.9293
106.000000	71.754	176.5627
107.500000	71.725	176.2178
109.000000	71.691	175.8378
110.599998	71.651	175.4752
112.000000	71.616	175.1705
113.800003	71.575	174.7868
115.000000	71.547	174.5388
117.199997	71.498	174.0997
118.000000	71.478	173.9392
120.599998	71.415	173.4753
122.000000	71.383	173.2288
124.099998	71.333	172.8797
125.000000	71.314	172.7355
126.500000	71.284	172.4845
128.000000	71.253	172.2474
131.500000	71.182	171.7147
132.000000	71.174	171.6396
134.000000	71.135	171.3528
136.000000	71.098	171.1113
138.000000	71.060	170.8735
140.000000	71.020	170.6325
143.000000	70.957	170.2531
145.000000	70.914	170.0085
147.500000	70.865	169.7228
150.000000	70.815	169.4751
152.500000	70.768	169.2515
155.000000	70.719	169.0251
157.500000	70.670	168.8185
160.000000	70.618	168.6192
162.500000	70.558	168.4293
165.000000	70.497	168.2599
167.500000	70.439	168.0907
170.000000	70.377	167.9270
172.500000	70.318	167.7800
175.000000	70.259	167.6370
177.500000	70.200	167.5274
180.000000	70.144	167.4080
182.500000	70.086	167.3087
185.000000	70.032	167.2189
187.500000	69.976	167.1204
190.000000	69.919	167.0260
192.500000	69.863	166.9566
195.000000	69.809	166.8975
197.500000	69.756	166.8320
200.000000	69.703	166.7697
203.000000	69.646	166.6946
206.000000	69.592	166.6415
209.000000	69.538	166.6200
212.000000	69.485	166.5922
214.000000	69.447	166.5705
218.000000	69.375	166.5428
220.000000	69.342	166.5403
224.000000	69.273	166.5259
227.000000	69.224	166.5359
230.000000	69.175	166.5551
233.000000	69.125	166.5815
236.000000	69.076	166.6130
240.000000	69.013	166.6443
243.000000	68.964	166.6805
247.000000	68.902	166.7307
250.000000	68.858	166.7823
254.000000	68.801	166.8571
258.000000	68.748	166.9508
262.000000	68.695	167.0289
265.000000	68.653	167.0928
269.000000	68.598	167.1978
272.000000	68.558	167.2835
276.000000	68.508	167.4015
280.000000	68.460	167.5179
285.000000	68.398	167.6525
290.000000	68.335	167.8397
295.000000	68.278	168.0064
300.000000	68.226	168.2051
304.000000	68.181	168.3492
307.000000	68.148	168.4501
311.000000	68.104	168.5909
315.000000	68.060	168.7617
320.000000	68.010	168.9863
325.000000	67.964	169.1787
330.000000	67.915	169.3657
335.000000	67.866	169.5826
340.000000	67.820	169.8039
345.000000	67.776	170.0276
350.000000	67.731	170.2455
355.000000	67.686	170.4591
360.000000	67.645	170.6813
365.000000	67.604	170.9089
370.000000	67.563	171.1467
375.000000	67.522	171.3904
382.000000	67.467	171.7485
387.000000	67.426	171.9873
395.000000	67.372	172.3725
400.000000	67.335	172.6205
406.000000	67.294	172.9500
412.000000	67.253	173.2718
418.000000	67.215	173.5789
425.000000	67.168	173.9566
431.000000	67.132	174.2740
437.000000	67.098	174.5948
444.000000	67.058	175.0016
450.000000	67.027	175.3087
455.000000	67.000	175.5733
462.000000	66.963	175.9529
468.000000	66.932	176.2873
475.000000	66.899	176.6891
482.000000	66.866	177.0991
487.000000	66.842	177.3822
494.000000	66.811	177.7783
500.000000	66.785	178.1193
508.000000	66.755	178.6002
515.000000	66.732	179.0156
522.000000	66.708	179.4234
530.000000	66.681	179.8995
538.000000	66.654	-179.6246
545.000000	66.634	-179.2061
552.000000	66.617	-178.7814
560.000000	66.596	-178.2989
570.000000	66.572	-177.6863
580.000000	66.551	-177.0499
590.000000	66.531	-176.4278
600.000000	66.511	-175.8067
608.000000	66.501	-175.2908
615.000000	66.492	-174.8498
622.000000	66.483	-174.4108
630.000000	66.475	-173.8910
640.000000	66.468	-173.2463
650.000000	66.462	-172.5924
660.000000	66.461	-171.9268
670.000000	66.460	-171.2560
680.000000	66.463	-170.5865
690.000000	66.470	-169.9084
700.000000	66.477	-169.2443
710.000000	66.488	-168.5882
720.000000	66.503	-167.8952
730.000000	66.521	-167.2090
740.000000	66.541	-166.5331
750.000000	66.565	-165.8580
762.000000	66.601	-165.0657
775.000000	66.642	-164.2159
788.000000	66.696	-163.3940
800.000000	66.742	-162.6837
812.000000	66.791	-162.0316
825.000000	66.841	-161.5349
838.000000	66.848	-161.3799
850.000000	66.671	-161.0792
862.000000	66.512	-158.1922
875.000000	66.835	-155.6889
885.000000	67.067	-155.2699
900.000000	67.256	-155.4146
912.000000	67.286	-155.1404
925.000000	67.353	-154.4067
938.000000	67.452	-153.7097
950.000000	67.550	-153.1452
962.000000	67.654	-152.6373
975.000000	67.762	-152.1371
988.000000	67.872	-151.6656
1000.000000	67.977	-151.2831
1015.000000	68.120	-150.8222
1030.000000	68.262	-150.4293
1044.000000	68.398	-150.1163
1060.000000	68.553	-149.7976
1075.000000	68.691	-149.5574
1090.000000	68.830	-149.3606
1106.000000	68.973	-149.1914
1120.000000	69.097	-149.0677
1138.000000	69.248	-148.9528
1150.000000	69.346	-148.8995
1172.000000	69.524	-148.8672
1180.000000	69.586	-148.8658
1206.000000	69.778	-148.8914
1220.000000	69.875	-148.9283
1241.000000	70.013	-148.9936
1250.000000	70.067	-149.0313
1265.000000	70.142	-149.1101
1280.000000	70.207	-149.1941
1315.000000	70.350	-149.3899
1320.000000	70.369	-149.4183
1340.000000	70.442	-149.5319
1360.000000	70.513	-149.6440
1380.000000	70.578	-149.7656
1400.000000	70.645	-149.8978
1430.000000	70.739	-150.0672
1450.000000	70.797	-150.1841
1475.000000	70.870	-150.3361
1500.000000	70.942	-150.4786
1525.000000	71.013	-150.6312
1550.000000	71.083	-150.7758
1575.000000	71.150	-150.9197
1600.000000	71.224	-151.0836
1625.000000	71.322	-151.2566
1650.000000	71.426	-151.4304
1675.000000	71.532	-151.6100
1700.000000	71.635	-151.8075
1725.000000	71.738	-152.0207
1750.000000	71.840	-152.2446
1775.000000	71.941	-152.4807
1800.000000	72.040	-152.7412
1825.000000	72.140	-153.0241
1850.000000	72.237	-153.3134
1875.000000	72.332	-153.6218
1900.000000	72.424	-153.9615
1925.000000	72.517	-154.3051
1950.000000	72.608	-154.6808
1975.000000	72.697	-155.0750
2000.000000	72.781	-155.4877
2030.000000	72.874	-156.0134
2060.000000	72.961	-156.5519
2090.000000	73.045	-157.1228
2120.000000	73.126	-157.7266
2140.000000	73.176	-158.1360
2180.000000	73.268	-158.9879
2200.000000	73.310	-159.4236
2240.000000	73.388	-160.3238
2270.000000	73.442	-161.0121
2300.000000	73.489	-161.7178
2330.000000	73.530	-162.4317
2360.000000	73.563	-163.1420
2400.000000	73.599	-164.0935
2430.000000	73.620	-164.8061
2470.000000	73.637	-165.7501
2500.000000	73.642	-166.4514
2540.000000	73.639	-167.3566
2580.000000	73.628	-168.2451
2620.000000	73.607	-169.0998
2650.000000	73.587	-169.7158
2690.000000	73.552	-170.5084
2720.000000	73.522	-171.0711
2760.000000	73.478	-171.7835
2800.000000	73.427	-172.4635
2850.000000	73.358	-173.2216
2900.000000	73.284	-173.8993
2950.000000	73.204	-174.5085
3000.000000	73.124	-175.0480
3040.000000	73.057	-175.4228
3070.000000	73.007	-175.6760
3110.000000	72.939	-175.9697
3150.000000	72.871	-176.2163
3200.000000	72.788	-176.4766
3250.000000	72.706	-176.6627
3300.000000	72.629	-176.7938
3350.000000	72.555	-176.8784
3400.000000	72.485	-176.9032
3450.000000	72.419	-176.8800
3500.000000	72.358	-176.8233
3550.000000	72.305	-176.7283
3600.000000	72.257	-176.5905
3650.000000	72.214	-176.4265
3700.000000	72.178	-176.2390
3750.000000	72.151	-176.0218
3820.000000	72.122	-175.6933
3870.000000	72.111	-175.4480
3950.000000	72.109	-175.0477
4000.000000	72.115	-174.7876
4060.000000	72.130	-174.4844
4120.000000	72.156	-174.1967
4180.000000	72.194	-173.9398
4250.000000	72.249	-173.6972
4310.000000	72.306	-173.5325
4370.000000	72.370	-173.4304
4440.000000	72.456	-173.4052
4500.000000	72.539	-173.4669
4550.000000	72.608	-173.5945
4620.000000	72.704	-173.8802
4680.000000	72.781	-174.2187
4750.000000	72.864	-174.6235
4820.000000	72.969	-175.1253
4870.000000	73.044	-175.6756
4940.000000	73.120	-176.6016
5000.000000	73.163	-177.4687
5080.000000	73.180	-178.7002
5150.000000	73.168	-179.8177
5220.000000	73.130	179.0386
5300.000000	73.058	177.7354
5380.000000	72.957	176.4751
5450.000000	72.845	175.4370
5520.000000	72.712	174.4709
5600.000000	72.540	173.4731
5700.000000	72.298	172.4302
5800.000000	72.034	171.6199
5900.000000	71.758	171.0445
6000.000000	71.470	170.7170
6080.000000	71.236	170.6154
6150.000000	71.030	170.6430
6220.000000	70.828	170.7780
6300.000000	70.615	171.0561
6400.000000	70.408	171.5702
6500.000000	70.227	172.2602
6600.000000	70.061	173.1255
6700.000000	69.909	174.1239
6800.000000	69.773	175.2508
6900.000000	69.660	176.4882
7000.000000	69.571	177.8516
7100.000000	69.510	179.2922
7200.000000	69.484	-179.2480
7300.000000	69.484	-177.8246
7400.000000	69.508	-176.4021
7500.000000	69.561	-174.9911
7620.000000	69.662	-173.3584
7750.000000	69.825	-171.7148
7880.000000	70.047	-170.2760
8000.000000	70.278	-169.1932
8120.000000	70.477	-168.4426
8250.000000	70.727	-168.1032
8380.000000	71.026	-168.4036
8500.000000	71.329	-169.3965
8620.000000	71.632	-171.1944
8750.000000	71.928	-174.1681
8850.000000	72.097	-177.1897
9000.000000	72.186	177.2410
9120.000000	72.067	172.2101
9250.000000	71.722	166.7128
9380.000000	71.168	161.7270
9500.000000	70.509	157.9297
9620.000000	69.760	155.0753
9750.000000	68.899	153.0760
9880.000000	68.034	152.1217
10000.000000	67.270	152.0398
10150.000000	66.411	152.7986
10300.000000	65.642	154.3654
10440.000000	65.002	156.3834
10600.000000	64.360	159.2896
10750.000000	63.882	162.3780
10900.000000	63.478	165.4403
11060.000000	63.113	169.0040
11200.000000	62.877	172.3118
11380.000000	62.675	176.6295
11500.000000	62.609	179.5201
11720.000000	62.633	-175.3255
11800.000000	62.686	-173.5282
12060.000000	63.028	-168.1968
12200.000000	63.306	-165.7409
12410.000000	63.867	-162.5811
12500.000000	64.179	-161.5083
12650.000000	64.802	-160.5320
12800.000000	65.539	-161.0579
13150.000000	67.229	-171.3875
13200.000000	67.381	-174.0454
13400.000000	67.485	173.1534
13600.000000	66.621	159.9737
13800.000000	64.988	150.3720
14000.000000	63.035	145.4222
14300.000000	60.203	144.5126
14500.000000	58.538	146.5313
14750.000000	56.721	150.7860
15000.000000	55.177	156.2025
15250.000000	53.886	162.3143
15500.000000	52.817	168.8735
15750.000000	51.953	175.6462
16000.000000	51.329	-177.4935
16250.000000	51.130	-170.8072
16500.000000	51.147	-164.2972
16750.000000	51.307	-158.1092
17000.000000	51.599	-152.3697
17250.000000	52.011	-147.2192
17500.000000	52.532	-142.9107
17750.000000	53.128	-139.7110
18000.000000	53.754	-137.8692
18250.000000	54.329	-137.5911
18500.000000	54.740	-139.1685
18750.000000	54.868	-142.1087
19000.000000	54.658	-145.5694
19250.000000	54.092	-148.5049
19500.000000	53.377	-150.2036
19750.000000	52.644	-151.9164
