* Measurement data measured by REW V5.20.13
* Source: C:\Users\marcu\OneDrive\Desktop\audio_db\Sound Rhyme DTE500 FA Type E R.txt
* Format: Comma/Tab/Space delimited data
* Dated: May 29, 2023 8:27:35 AM
* REW Settings:
*  C-weighting compensation: Off
*  Target level: 75.0 dB
* Note: ; Measurement imported from C:\Users\marcu\OneDrive\Desktop\audio_db\Sound Rhyme DTE500 FA Type E R.txt Format: Comma/Tab/Space delimited data 54613 values loaded, 0 Hz to 20,000 Hz 
* Measurement: Round Rhyme DTE500 FA Typ
* Smoothing: None
* Frequency Step: 1/48 octave
* Start Frequency: 1.000 Hz
*
* Freq(Hz)	SPL(dB)	Phase(degrees)
1.000000	69.939	-64.4165
1.015000	69.829	-65.2428
1.030000	69.717	-66.0541
1.044000	69.611	-66.7971
1.060000	69.486	-67.6282
1.075000	69.367	-68.3890
1.090000	69.246	-69.1309
1.106000	69.114	-69.9042
1.120000	68.995	-70.5862
1.138000	68.838	-71.4729
1.150000	68.730	-72.0677
1.172000	68.529	-73.1604
1.180000	68.454	-73.5568
1.206000	68.206	-74.8349
1.220000	68.070	-75.5125
1.241000	67.861	-76.5082
1.250000	67.771	-76.9256
1.265000	67.619	-77.6064
1.280000	67.465	-78.2660
1.315000	67.101	-79.7057
1.320000	67.049	-79.8984
1.340000	66.838	-80.6322
1.360000	66.625	-81.3015
1.380000	66.412	-81.8993
1.400000	66.198	-82.4183
1.430000	65.876	-83.0337
1.450000	65.663	-83.3247
1.475000	65.395	-83.5449
1.500000	65.107	-83.6278
1.525000	64.798	-83.5855
1.550000	64.475	-83.4246
1.575000	64.142	-83.1518
1.600000	63.804	-82.7735
1.625000	63.467	-82.2964
1.650000	63.135	-81.7272
1.675000	62.815	-81.0723
1.700000	62.512	-80.3385
1.725000	62.230	-79.5323
1.750000	61.975	-78.6602
1.775000	61.752	-77.7289
1.800000	61.567	-76.7451
1.825000	61.425	-75.7152
1.850000	61.325	-74.5846
1.875000	61.261	-73.2306
1.900000	61.228	-71.6853
1.925000	61.224	-69.9875
1.950000	61.247	-68.1760
1.975000	61.293	-66.2897
2.000000	61.361	-64.3673
2.030000	61.466	-62.0674
2.060000	61.595	-59.8384
2.090000	61.741	-57.7474
2.120000	61.902	-55.8614
2.140000	62.014	-54.7510
2.180000	62.246	-52.9724
2.200000	62.363	-52.3431
2.240000	62.634	-51.4825
2.270000	62.874	-51.1116
2.300000	63.140	-50.9503
2.330000	63.425	-50.9758
2.360000	63.724	-51.1650
2.400000	64.135	-51.6323
2.430000	64.444	-52.1142
2.470000	64.846	-52.8882
2.500000	65.134	-53.5375
2.540000	65.486	-54.4514
2.580000	65.794	-55.3951
2.620000	66.081	-56.5354
2.650000	66.287	-57.5278
2.690000	66.549	-59.0013
2.720000	66.737	-60.1971
2.760000	66.976	-61.8800
2.800000	67.201	-63.6270
2.850000	67.465	-65.8391
2.900000	67.708	-68.0092
2.950000	67.931	-70.0813
3.000000	68.130	-72.1989
3.040000	68.273	-73.9370
3.070000	68.371	-75.2553
3.110000	68.491	-77.0189
3.150000	68.600	-78.7738
3.200000	68.722	-80.9295
3.250000	68.830	-83.0123
3.300000	68.928	-84.9895
3.350000	69.009	-86.9051
3.400000	69.071	-88.7917
3.450000	69.117	-90.6298
3.500000	69.151	-92.3995
3.550000	69.175	-94.0813
3.600000	69.192	-95.6553
3.650000	69.206	-97.1019
3.700000	69.214	-98.4179
3.750000	69.207	-99.6317
3.820000	69.181	-101.1585
3.870000	69.157	-102.1232
3.950000	69.122	-103.4432
4.000000	69.111	-104.1256
4.060000	69.111	-104.7842
4.120000	69.112	-105.2220
4.180000	69.117	-105.4779
4.250000	69.134	-105.6143
4.310000	69.166	-105.6503
4.370000	69.219	-105.6652
4.440000	69.315	-105.6618
4.500000	69.423	-105.5371
4.550000	69.528	-105.3788
4.620000	69.693	-105.1386
4.680000	69.846	-104.9755
4.750000	70.035	-104.9129
4.820000	70.237	-105.0051
4.870000	70.397	-105.1189
4.940000	70.633	-105.3477
5.000000	70.840	-105.6118
5.080000	71.109	-106.0677
5.150000	71.327	-106.5725
5.220000	71.541	-107.2078
5.300000	71.780	-108.0624
5.380000	72.007	-108.9982
5.450000	72.191	-109.8377
5.520000	72.356	-110.6651
5.600000	72.525	-111.6677
5.700000	72.710	-112.9702
5.800000	72.870	-114.2293
5.900000	73.007	-115.3556
6.000000	73.114	-116.4041
6.080000	73.183	-117.1800
6.150000	73.238	-117.7946
6.220000	73.292	-118.3344
6.300000	73.349	-118.8478
6.400000	73.409	-119.3553
6.500000	73.467	-119.7493
6.600000	73.535	-120.0678
6.700000	73.614	-120.2757
6.800000	73.698	-120.3860
6.900000	73.791	-120.4767
7.000000	73.895	-120.6123
7.100000	74.012	-120.7457
7.200000	74.137	-120.8959
7.300000	74.261	-121.1059
7.400000	74.385	-121.4045
7.500000	74.511	-121.7713
7.620000	74.657	-122.2803
7.750000	74.798	-122.8996
7.880000	74.924	-123.6147
8.000000	75.026	-124.3032
8.120000	75.112	-124.9673
8.250000	75.188	-125.6909
8.380000	75.251	-126.3801
8.500000	75.302	-126.9488
8.620000	75.343	-127.4657
8.750000	75.385	-127.9781
8.850000	75.419	-128.3392
9.000000	75.470	-128.8152
9.120000	75.513	-129.1800
9.250000	75.566	-129.5853
9.380000	75.624	-129.9855
9.500000	75.678	-130.3782
9.620000	75.735	-130.8105
9.750000	75.799	-131.3110
9.880000	75.852	-131.8405
10.000000	75.884	-132.3599
10.150000	75.910	-133.0431
10.300000	75.924	-133.7284
10.440000	75.926	-134.3738
10.600000	75.921	-135.1010
10.750000	75.916	-135.7534
10.900000	75.909	-136.3855
11.060000	75.904	-137.0380
11.200000	75.902	-137.5879
11.380000	75.902	-138.2879
11.500000	75.905	-138.7533
11.720000	75.913	-139.6080
11.800000	75.917	-139.9236
12.060000	75.931	-140.9576
12.200000	75.936	-141.5135
12.410000	75.947	-142.3423
12.500000	75.957	-142.6888
12.650000	75.982	-143.2566
12.800000	76.012	-143.8100
13.150000	76.083	-145.0376
13.200000	76.093	-145.2082
13.400000	76.136	-145.8779
13.600000	76.177	-146.5355
13.800000	76.218	-147.1854
14.000000	76.257	-147.8202
14.300000	76.308	-148.7368
14.500000	76.336	-149.3093
14.750000	76.369	-149.9757
15.000000	76.400	-150.5874
15.250000	76.432	-151.1597
15.500000	76.463	-151.7156
15.750000	76.494	-152.2673
16.000000	76.524	-152.8283
16.250000	76.552	-153.3900
16.500000	76.577	-153.9453
16.750000	76.595	-154.4806
17.000000	76.609	-154.9920
17.250000	76.621	-155.4843
17.500000	76.632	-155.9659
17.750000	76.644	-156.4535
18.000000	76.654	-156.9515
18.250000	76.662	-157.4647
18.500000	76.668	-157.9864
18.750000	76.672	-158.5108
19.000000	76.673	-159.0324
19.250000	76.674	-159.5485
19.500000	76.676	-160.0617
19.750000	76.678	-160.5739
20.000000	76.681	-161.0869
20.299999	76.686	-161.6992
20.600000	76.693	-162.3014
20.900000	76.700	-162.8866
21.200001	76.709	-163.4525
21.400000	76.718	-163.8225
21.799999	76.736	-164.5524
22.000000	76.745	-164.9144
22.400000	76.764	-165.6297
22.700001	76.775	-166.1482
23.000000	76.783	-166.6412
23.299999	76.791	-167.1058
23.600000	76.797	-167.5453
24.000000	76.804	-168.1008
24.299999	76.809	-168.5005
24.700001	76.813	-169.0146
25.000000	76.813	-169.3882
25.400000	76.812	-169.8768
25.799999	76.808	-170.3632
26.200001	76.800	-170.8488
26.500000	76.791	-171.2064
26.900000	76.777	-171.6659
27.200001	76.766	-171.9981
27.600000	76.753	-172.4360
28.000000	76.743	-172.8867
28.500000	76.732	-173.4767
29.000000	76.717	-174.0698
29.500000	76.702	-174.6356
30.000000	76.691	-175.1741
30.400000	76.685	-175.5981
30.700001	76.683	-175.9155
31.100000	76.678	-176.3347
31.500000	76.675	-176.7449
32.000000	76.669	-177.2444
32.500000	76.664	-177.7349
33.000000	76.656	-178.2222
33.500000	76.646	-178.7043
34.000000	76.629	-179.1751
34.500000	76.610	-179.6279
35.000000	76.587	179.9405
35.500000	76.564	179.5251
36.000000	76.542	179.1160
36.500000	76.520	178.7042
37.000000	76.497	178.2863
37.500000	76.472	177.8674
38.200001	76.433	177.3127
38.700001	76.406	176.9623
39.500000	76.375	176.4387
40.000000	76.362	176.0751
40.599998	76.341	175.5948
41.200001	76.309	175.1383
41.799999	76.273	174.7554
42.500000	76.238	174.3662
43.099998	76.212	174.0293
43.700001	76.186	173.6836
44.400002	76.155	173.2870
45.000000	76.129	172.9587
45.500000	76.108	172.6879
46.200001	76.081	172.3040
46.799999	76.056	171.9723
47.500000	76.027	171.5944
48.200001	75.997	171.2256
48.700001	75.975	170.9641
49.400002	75.944	170.6047
50.000000	75.917	170.3046
50.799999	75.880	169.9090
51.500000	75.847	169.5699
52.200001	75.812	169.2468
53.000000	75.774	168.8979
53.799999	75.736	168.5664
54.500000	75.705	168.2812
55.200001	75.674	167.9946
56.000000	75.634	167.6866
57.000000	75.590	167.3212
58.000000	75.539	166.9167
59.000000	75.478	166.6106
60.000000	75.440	166.3495
60.799999	75.412	166.0445
61.500000	75.379	165.7722
62.200001	75.347	165.5344
63.000000	75.309	165.2827
64.000000	75.263	164.9976
65.000000	75.219	164.7225
66.000000	75.173	164.4504
67.000000	75.126	164.1949
68.000000	75.079	163.9333
69.000000	75.031	163.6773
70.000000	74.982	163.4376
71.000000	74.938	163.2005
72.000000	74.894	162.9617
73.000000	74.849	162.7292
74.000000	74.804	162.5170
75.000000	74.759	162.2970
76.199997	74.701	162.0568
77.500000	74.646	161.8375
78.800003	74.591	161.5760
80.000000	74.540	161.3702
81.199997	74.493	161.1648
82.500000	74.443	160.9351
83.800003	74.388	160.7220
85.000000	74.339	160.5529
86.199997	74.290	160.3795
87.500000	74.239	160.2043
88.500000	74.198	160.0628
90.000000	74.138	159.8669
91.199997	74.091	159.7012
92.500000	74.041	159.5339
93.800003	73.993	159.3727
95.000000	73.949	159.2331
96.199997	73.905	159.1111
97.500000	73.859	158.9738
98.800003	73.811	158.8460
100.000000	73.767	158.7366
101.500000	73.715	158.5912
103.000000	73.662	158.4350
104.400002	73.613	158.3074
106.000000	73.559	158.1652
107.500000	73.507	158.0347
109.000000	73.455	157.9215
110.599998	73.400	157.8039
112.000000	73.355	157.7084
113.800003	73.295	157.5719
115.000000	73.257	157.4908
117.199997	73.185	157.3557
118.000000	73.159	157.3102
120.599998	73.075	157.1645
122.000000	73.031	157.0864
124.099998	72.965	156.9560
125.000000	72.939	156.9102
126.500000	72.897	156.8356
128.000000	72.855	156.7720
131.500000	72.758	156.6382
132.000000	72.745	156.6206
134.000000	72.691	156.5530
136.000000	72.640	156.4882
138.000000	72.588	156.4341
140.000000	72.533	156.3899
143.000000	72.450	156.3176
145.000000	72.395	156.2874
147.500000	72.326	156.2780
150.000000	72.258	156.2871
152.500000	72.187	156.3027
155.000000	72.115	156.3545
157.500000	72.043	156.4495
160.000000	71.968	156.6062
162.500000	71.888	156.8279
165.000000	71.810	157.1421
167.500000	71.748	157.5493
170.000000	71.710	158.0153
172.500000	71.707	158.4692
175.000000	71.738	158.7560
177.500000	71.779	158.7625
180.000000	71.805	158.5124
182.500000	71.803	158.1328
185.000000	71.775	157.7427
187.500000	71.726	157.4019
190.000000	71.669	157.1345
192.500000	71.606	156.9200
195.000000	71.541	156.7592
197.500000	71.475	156.6377
200.000000	71.412	156.5416
203.000000	71.341	156.4548
206.000000	71.273	156.4032
209.000000	71.206	156.3701
212.000000	71.142	156.3481
214.000000	71.098	156.3404
218.000000	71.014	156.3517
220.000000	70.972	156.3643
224.000000	70.890	156.3993
227.000000	70.830	156.4374
230.000000	70.771	156.4758
233.000000	70.710	156.5264
236.000000	70.651	156.5871
240.000000	70.574	156.6754
243.000000	70.517	156.7509
247.000000	70.443	156.8528
250.000000	70.387	156.9391
254.000000	70.316	157.0656
258.000000	70.248	157.2004
262.000000	70.181	157.3434
265.000000	70.131	157.4566
269.000000	70.066	157.6130
272.000000	70.017	157.7380
276.000000	69.953	157.9109
280.000000	69.890	158.0899
285.000000	69.814	158.3310
290.000000	69.740	158.5767
295.000000	69.666	158.8322
300.000000	69.593	159.1171
304.000000	69.538	159.3488
307.000000	69.497	159.5234
311.000000	69.442	159.7630
315.000000	69.390	160.0034
320.000000	69.328	160.3281
325.000000	69.265	160.6469
330.000000	69.206	160.9832
335.000000	69.148	161.3223
340.000000	69.093	161.6825
345.000000	69.043	162.0554
350.000000	68.995	162.4117
355.000000	68.949	162.7828
360.000000	68.906	163.1655
365.000000	68.865	163.5370
370.000000	68.828	163.9130
375.000000	68.794	164.2856
382.000000	68.747	164.8041
387.000000	68.718	165.1844
395.000000	68.676	165.7595
400.000000	68.652	166.1165
406.000000	68.629	166.5236
412.000000	68.608	166.9260
418.000000	68.590	167.3270
425.000000	68.568	167.7553
431.000000	68.553	168.1091
437.000000	68.538	168.4480
444.000000	68.524	168.8229
450.000000	68.510	169.1415
455.000000	68.499	169.3901
462.000000	68.483	169.7255
468.000000	68.469	170.0040
475.000000	68.453	170.3192
482.000000	68.437	170.6404
487.000000	68.423	170.8637
494.000000	68.406	171.1871
500.000000	68.395	171.4614
508.000000	68.382	171.8383
515.000000	68.374	172.1458
522.000000	68.369	172.4363
530.000000	68.363	172.7249
538.000000	68.354	172.9629
545.000000	68.340	173.1434
552.000000	68.322	173.3358
560.000000	68.297	173.5862
570.000000	68.262	173.9302
580.000000	68.228	174.2772
590.000000	68.194	174.6646
600.000000	68.160	175.0716
608.000000	68.132	175.4090
615.000000	68.108	175.7144
622.000000	68.086	176.0253
630.000000	68.060	176.3776
640.000000	68.031	176.8498
650.000000	68.001	177.3334
660.000000	67.975	177.8334
670.000000	67.949	178.3454
680.000000	67.924	178.8687
690.000000	67.902	179.4165
700.000000	67.881	179.9910
710.000000	67.860	-179.4132
720.000000	67.845	-178.7687
730.000000	67.843	-178.0681
740.000000	67.855	-177.4084
750.000000	67.874	-176.8294
762.000000	67.892	-176.2155
775.000000	67.905	-175.5420
788.000000	67.919	-174.8481
800.000000	67.932	-174.2018
812.000000	67.944	-173.5487
825.000000	67.958	-172.8529
838.000000	67.977	-172.1774
850.000000	67.995	-171.5697
862.000000	68.014	-170.9677
875.000000	68.033	-170.3233
885.000000	68.047	-169.8170
900.000000	68.069	-169.0353
912.000000	68.091	-168.3573
925.000000	68.122	-167.5838
938.000000	68.165	-166.8078
950.000000	68.214	-166.0842
962.000000	68.273	-165.3972
975.000000	68.345	-164.6907
988.000000	68.424	-164.0269
1000.000000	68.504	-163.4601
1015.000000	68.621	-162.8203
1030.000000	68.745	-162.2414
1044.000000	68.862	-161.7470
1060.000000	69.000	-161.2676
1075.000000	69.128	-160.8752
1090.000000	69.257	-160.5410
1106.000000	69.393	-160.2475
1120.000000	69.511	-160.0370
1138.000000	69.659	-159.8130
1150.000000	69.757	-159.7101
1172.000000	69.929	-159.5788
1180.000000	69.991	-159.5485
1206.000000	70.185	-159.5181
1220.000000	70.285	-159.5367
1241.000000	70.429	-159.6206
1250.000000	70.484	-159.6685
1265.000000	70.562	-159.7663
1280.000000	70.629	-159.8888
1315.000000	70.777	-160.2571
1320.000000	70.796	-160.3165
1340.000000	70.872	-160.5748
1360.000000	70.942	-160.8760
1380.000000	71.005	-161.2059
1400.000000	71.064	-161.5624
1430.000000	71.139	-162.1529
1450.000000	71.180	-162.5784
1475.000000	71.219	-163.1302
1500.000000	71.244	-163.7008
1525.000000	71.257	-164.2825
1550.000000	71.254	-164.8420
1575.000000	71.238	-165.3871
1600.000000	71.216	-165.8916
1625.000000	71.202	-166.3351
1650.000000	71.185	-166.7128
1675.000000	71.158	-167.0033
1700.000000	71.125	-167.1966
1725.000000	71.087	-167.2973
1750.000000	71.048	-167.2914
1775.000000	71.009	-167.1887
1800.000000	70.975	-166.9933
1825.000000	70.946	-166.7086
1850.000000	70.923	-166.3445
1875.000000	70.912	-165.9209
1900.000000	70.911	-165.4385
1925.000000	70.920	-164.9147
1950.000000	70.941	-164.3581
1975.000000	70.974	-163.7743
2000.000000	71.018	-163.1866
2030.000000	71.081	-162.4867
2060.000000	71.161	-161.8126
2090.000000	71.257	-161.1705
2120.000000	71.367	-160.5672
2140.000000	71.447	-160.1983
2180.000000	71.628	-159.5506
2200.000000	71.724	-159.2814
2240.000000	71.931	-158.8528
2270.000000	72.095	-158.6312
2300.000000	72.265	-158.5152
2330.000000	72.440	-158.4932
2360.000000	72.618	-158.5795
2400.000000	72.858	-158.8588
2430.000000	73.036	-159.1912
2470.000000	73.268	-159.8030
2500.000000	73.434	-160.3743
2540.000000	73.645	-161.2726
2580.000000	73.838	-162.3188
2620.000000	74.012	-163.4667
2650.000000	74.132	-164.3846
2690.000000	74.279	-165.6603
2720.000000	74.381	-166.6593
2760.000000	74.510	-168.0783
2800.000000	74.622	-169.6293
2850.000000	74.728	-171.7356
2900.000000	74.784	-173.9336
2950.000000	74.790	-176.0905
3000.000000	74.757	-178.1209
3040.000000	74.710	-179.6316
3070.000000	74.666	179.3079
3110.000000	74.601	177.9813
3150.000000	74.530	176.7535
3200.000000	74.438	175.3383
3250.000000	74.346	174.0205
3300.000000	74.259	172.7740
3350.000000	74.178	171.5544
3400.000000	74.104	170.3113
3450.000000	74.031	169.0116
3500.000000	73.957	167.6072
3550.000000	73.874	166.0588
3600.000000	73.771	164.3413
3650.000000	73.632	162.4543
3700.000000	73.442	160.4354
3750.000000	73.183	158.3874
3820.000000	72.683	155.7963
3870.000000	72.228	154.4392
3950.000000	71.387	153.7039
4000.000000	70.850	154.3313
4060.000000	70.263	156.1283
4120.000000	69.797	158.7916
4180.000000	69.486	161.9322
4250.000000	69.319	165.6836
4310.000000	69.319	168.5886
4370.000000	69.409	171.0007
4440.000000	69.573	173.1484
4500.000000	69.730	174.5042
4550.000000	69.861	175.4062
4620.000000	70.048	176.4631
4680.000000	70.223	177.2222
4750.000000	70.462	177.8732
4820.000000	70.740	178.1317
4870.000000	70.957	177.9926
4940.000000	71.263	177.2421
5000.000000	71.506	176.0396
5080.000000	71.751	173.6575
5150.000000	71.866	170.9748
5220.000000	71.865	167.9396
5300.000000	71.708	164.3750
5380.000000	71.392	161.0664
5450.000000	71.009	158.6076
5520.000000	70.551	156.6941
5600.000000	69.971	155.2356
5700.000000	69.207	154.4709
5800.000000	68.446	154.7508
5900.000000	67.722	155.9290
6000.000000	67.051	157.8133
6080.000000	66.559	159.7340
6150.000000	66.165	161.6613
6220.000000	65.801	163.7894
6300.000000	65.435	166.4250
6400.000000	65.091	170.0304
6500.000000	64.832	173.9117
6600.000000	64.644	177.9652
6700.000000	64.521	-177.8369
6800.000000	64.465	-173.5092
6900.000000	64.476	-169.0848
7000.000000	64.563	-164.5648
7100.000000	64.728	-160.0127
7200.000000	64.985	-155.4750
7300.000000	65.335	-151.0354
7400.000000	65.785	-146.7589
7500.000000	66.349	-142.7905
7620.000000	67.177	-138.7564
7750.000000	68.237	-135.6575
7880.000000	69.408	-134.4362
8000.000000	70.465	-135.3364
8120.000000	71.305	-138.2151
8250.000000	71.905	-142.8227
8380.000000	72.172	-147.6698
8500.000000	72.208	-151.4328
8620.000000	72.162	-154.2830
8750.000000	72.115	-156.6704
8850.000000	72.102	-158.3821
9000.000000	72.052	-161.1601
9120.000000	71.999	-163.1313
9250.000000	71.934	-166.2403
9380.000000	71.602	-169.5941
9500.000000	71.077	-171.7544
9620.000000	70.389	-172.2682
9750.000000	69.567	-169.9614
9880.000000	68.961	-163.7461
10000.000000	69.078	-155.1699
10150.000000	70.628	-145.6927
10300.000000	73.033	-144.5936
10440.000000	74.934	-152.6846
10600.000000	75.941	-167.9109
10750.000000	75.784	178.3401
10900.000000	75.024	168.3637
11060.000000	74.034	161.7204
11200.000000	73.220	158.1580
11380.000000	72.317	155.1451
11500.000000	71.783	153.5944
11720.000000	70.859	151.3204
11800.000000	70.536	150.6602
12060.000000	69.503	148.6964
12200.000000	68.903	147.7903
12410.000000	67.914	147.1049
12500.000000	67.460	147.1492
12650.000000	66.673	147.7214
12800.000000	65.884	148.9146
13150.000000	64.158	153.6630
13200.000000	63.928	154.5397
13400.000000	63.074	158.4877
13600.000000	62.346	163.0458
13800.000000	61.772	167.9724
14000.000000	61.372	173.0233
14300.000000	61.154	-179.7901
14500.000000	61.310	-175.9871
14750.000000	61.856	-173.7954
15000.000000	62.575	-176.9165
15250.000000	62.758	173.0066
15500.000000	61.578	160.9583
15750.000000	59.340	155.4626
16000.000000	57.271	157.0193
16250.000000	56.074	159.3466
16500.000000	54.852	159.3986
16750.000000	53.050	161.7925
17000.000000	51.162	169.2574
17250.000000	49.673	-179.4599
17500.000000	48.770	-166.8759
17750.000000	48.347	-155.3401
18000.000000	48.059	-146.0385
18250.000000	47.601	-137.8558
18500.000000	46.903	-128.9165
18750.000000	45.986	-117.7557
19000.000000	44.994	-101.0366
19250.000000	45.374	-75.1460
19500.000000	49.315	-51.6493
19750.000000	53.590	-51.7677
