* Measurement data measured by REW V5.20.13
* Source: EXCL: Microphone (USB Sound Device        ), MICROPHONE (Master Volume), L, volume: 0.130
* Format: 256k Log Swept Sine, 1 sweep at -6.0 dBFS with no timing reference
* Dated: Oct 27, 2023 12:15:38 PM
* REW Settings:
*  C-weighting compensation: Off
*  Target level: 75.0 dB
* Note: ; 
* Measurement: FUDU Foam L
* Smoothing: None
* Frequency Step: 1/48 octave
* Start Frequency: 1.000 Hz
*
* Freq(Hz)	SPL(dB)	Phase(degrees)
1.000000	62.438	-146.7893
1.015000	62.451	-148.4143
1.030000	62.461	-150.0477
1.044000	62.469	-151.5816
1.060000	62.474	-153.3479
1.075000	62.477	-155.0186
1.090000	62.477	-156.7056
1.106000	62.475	-158.5217
1.120000	62.469	-160.1059
1.138000	62.457	-162.1322
1.150000	62.445	-163.4780
1.172000	62.419	-165.9378
1.180000	62.408	-166.8308
1.206000	62.365	-169.7317
1.220000	62.338	-171.2953
1.241000	62.294	-173.6464
1.250000	62.274	-174.6572
1.265000	62.239	-176.3475
1.280000	62.201	-178.0463
1.315000	62.107	177.9470
1.320000	62.093	177.3687
1.340000	62.035	175.0386
1.360000	61.975	172.6778
1.380000	61.914	170.2823
1.400000	61.852	167.8480
1.430000	61.759	164.1147
1.450000	61.697	161.5651
1.475000	61.619	158.3049
1.500000	61.531	154.9778
1.525000	61.431	151.5907
1.550000	61.323	148.1470
1.575000	61.209	144.6497
1.600000	61.090	141.1023
1.625000	60.971	137.5078
1.650000	60.852	133.8694
1.675000	60.736	130.1906
1.700000	60.627	126.4743
1.725000	60.525	122.7239
1.750000	60.434	118.9426
1.775000	60.356	115.1337
1.800000	60.293	111.3003
1.825000	60.248	107.4456
1.850000	60.220	103.5419
1.875000	60.202	99.5268
1.900000	60.195	95.4169
1.925000	60.197	91.2320
1.950000	60.209	86.9918
1.975000	60.229	82.7161
2.000000	60.259	78.4248
2.030000	60.305	73.2825
2.060000	60.363	68.1804
2.090000	60.432	63.1527
2.120000	60.511	58.2336
2.140000	60.569	55.0314
2.180000	60.698	48.8582
2.200000	60.769	45.9067
2.240000	60.937	40.1623
2.270000	61.088	35.9541
2.300000	61.256	31.8342
2.330000	61.436	27.8047
2.360000	61.627	23.8676
2.400000	61.888	18.7658
2.430000	62.085	15.0529
2.470000	62.342	10.2578
2.500000	62.525	6.7807
2.540000	62.750	2.3077
2.580000	62.947	-1.9713
2.620000	63.136	-6.0350
2.650000	63.274	-8.9470
2.690000	63.453	-12.6616
2.720000	63.581	-15.3307
2.760000	63.743	-18.7468
2.800000	63.892	-22.0151
2.850000	64.056	-25.9178
2.900000	64.193	-29.6477
2.950000	64.297	-33.2319
3.000000	64.373	-36.6434
3.040000	64.415	-39.2359
3.070000	64.436	-41.0974
3.110000	64.451	-43.4650
3.150000	64.451	-45.6974
3.200000	64.433	-48.2905
3.250000	64.396	-50.6554
3.300000	64.342	-52.7830
3.350000	64.256	-54.7102
3.400000	64.135	-56.4496
3.450000	63.991	-57.9752
3.500000	63.834	-59.2608
3.550000	63.674	-60.2804
3.600000	63.522	-61.0078
3.650000	63.389	-61.4171
3.700000	63.268	-61.4470
3.750000	63.130	-61.0469
3.820000	62.934	-59.9234
3.870000	62.811	-58.8380
3.950000	62.685	-56.8548
4.000000	62.674	-55.5981
4.060000	62.751	-54.1240
4.120000	62.916	-52.3398
4.180000	63.151	-50.3560
4.250000	63.489	-48.0400
4.310000	63.812	-46.2689
4.370000	64.146	-44.8937
4.440000	64.548	-43.9425
4.500000	64.941	-43.5176
4.550000	65.291	-43.3885
4.620000	65.792	-43.4944
4.680000	66.210	-43.7977
4.750000	66.657	-44.3308
4.820000	67.055	-45.0985
4.870000	67.326	-45.8616
4.940000	67.685	-47.1465
5.000000	67.971	-48.3715
5.080000	68.319	-50.0527
5.150000	68.587	-51.4641
5.220000	68.819	-52.9437
5.300000	69.044	-54.7183
5.380000	69.235	-56.4903
5.450000	69.380	-57.9634
5.520000	69.508	-59.3090
5.600000	69.620	-60.7729
5.700000	69.720	-62.4851
5.800000	69.797	-63.9985
5.900000	69.870	-65.2425
6.000000	69.921	-66.2122
6.080000	69.954	-66.8304
6.150000	69.987	-67.2836
6.220000	70.032	-67.6770
6.300000	70.099	-68.0165
6.400000	70.194	-68.2523
6.500000	70.305	-68.4133
6.600000	70.438	-68.6436
6.700000	70.599	-68.9173
6.800000	70.783	-69.2064
6.900000	70.974	-69.5895
7.000000	71.162	-70.1387
7.100000	71.358	-70.8409
7.200000	71.554	-71.6593
7.300000	71.737	-72.5634
7.400000	71.900	-73.5554
7.500000	72.050	-74.6618
7.620000	72.210	-76.0449
7.750000	72.352	-77.5035
7.880000	72.460	-78.9776
8.000000	72.538	-80.2849
8.120000	72.602	-81.4642
8.250000	72.649	-82.6291
8.380000	72.687	-83.6757
8.500000	72.726	-84.5181
8.620000	72.761	-85.2369
8.750000	72.804	-85.9406
8.850000	72.845	-86.4589
9.000000	72.919	-87.1571
9.120000	72.984	-87.7124
9.250000	73.060	-88.3620
9.380000	73.144	-89.0345
9.500000	73.219	-89.6882
9.620000	73.291	-90.3890
9.750000	73.369	-91.1921
9.880000	73.430	-92.0043
10.000000	73.463	-92.7570
10.150000	73.484	-93.7032
10.300000	73.491	-94.5982
10.440000	73.482	-95.3866
10.600000	73.466	-96.2308
10.750000	73.452	-96.9517
10.900000	73.438	-97.6162
11.060000	73.427	-98.2944
11.200000	73.421	-98.8552
11.380000	73.417	-99.5707
11.500000	73.416	-100.0528
11.720000	73.416	-100.9419
11.800000	73.415	-101.2709
12.060000	73.409	-102.3474
12.200000	73.400	-102.9159
12.410000	73.385	-103.7521
12.500000	73.385	-104.0974
12.650000	73.393	-104.6555
12.800000	73.406	-105.1989
13.150000	73.439	-106.4202
13.200000	73.445	-106.5946
13.400000	73.467	-107.2933
13.600000	73.488	-107.9999
13.800000	73.508	-108.7204
14.000000	73.523	-109.4354
14.300000	73.539	-110.4848
14.500000	73.547	-111.1462
14.750000	73.557	-111.9329
15.000000	73.571	-112.6802
15.250000	73.591	-113.4194
15.500000	73.613	-114.1737
15.750000	73.636	-114.9517
16.000000	73.658	-115.7516
16.250000	73.679	-116.5455
16.500000	73.698	-117.3184
16.750000	73.714	-118.0492
17.000000	73.731	-118.7432
17.250000	73.750	-119.4119
17.500000	73.772	-120.0732
17.750000	73.795	-120.7458
18.000000	73.817	-121.4287
18.250000	73.836	-122.1202
18.500000	73.851	-122.8029
18.750000	73.863	-123.4698
19.000000	73.874	-124.1149
19.250000	73.884	-124.7438
19.500000	73.895	-125.3655
19.750000	73.906	-125.9867
20.000000	73.916	-126.6135
20.299999	73.928	-127.3675
20.600000	73.938	-128.1173
20.900000	73.946	-128.8571
21.200001	73.954	-129.5886
21.400000	73.959	-130.0771
21.799999	73.969	-131.0626
22.000000	73.973	-131.5597
22.400000	73.979	-132.5535
22.700001	73.982	-133.2875
23.000000	73.985	-134.0079
23.299999	73.991	-134.7220
23.600000	73.998	-135.4390
24.000000	74.008	-136.4070
24.299999	74.015	-137.1365
24.700001	74.023	-138.0963
25.000000	74.028	-138.7982
25.400000	74.038	-139.7128
25.799999	74.051	-140.6179
26.200001	74.063	-141.5209
26.500000	74.071	-142.1904
26.900000	74.081	-143.0619
27.200001	74.088	-143.6973
27.600000	74.097	-144.5269
28.000000	74.108	-145.3481
28.500000	74.118	-146.3646
29.000000	74.126	-147.3570
29.500000	74.133	-148.3264
30.000000	74.141	-149.2903
30.400000	74.145	-150.0604
30.700001	74.147	-150.6328
31.100000	74.149	-151.3847
31.500000	74.152	-152.1268
32.000000	74.156	-153.0509
32.500000	74.158	-153.9697
33.000000	74.160	-154.8694
33.500000	74.164	-155.7490
34.000000	74.169	-156.6215
34.500000	74.172	-157.4880
35.000000	74.174	-158.3339
35.500000	74.176	-159.1530
36.000000	74.179	-159.9571
36.500000	74.181	-160.7538
37.000000	74.181	-161.5363
37.500000	74.179	-162.2993
38.200001	74.177	-163.3473
38.700001	74.174	-164.0870
39.500000	74.167	-165.2476
40.000000	74.163	-165.9637
40.599998	74.159	-166.8167
41.200001	74.154	-167.6515
41.799999	74.149	-168.4683
42.500000	74.143	-169.4110
43.099998	74.136	-170.2029
43.700001	74.129	-170.9701
44.400002	74.120	-171.8421
45.000000	74.112	-172.5758
45.500000	74.105	-173.1777
46.200001	74.093	-174.0094
46.799999	74.081	-174.7094
47.500000	74.065	-175.5044
48.200001	74.048	-176.2834
48.700001	74.035	-176.8309
49.400002	74.017	-177.5779
50.000000	74.001	-178.2040
50.799999	73.980	-179.0222
51.500000	73.960	-179.7147
52.200001	73.941	179.6069
53.000000	73.917	178.8451
53.799999	73.891	178.1154
54.500000	73.868	177.4975
55.200001	73.844	176.8931
56.000000	73.816	176.2231
57.000000	73.783	175.4067
58.000000	73.748	174.6000
59.000000	73.709	173.8269
60.000000	73.670	173.1028
60.799999	73.639	172.5385
61.500000	73.611	172.0603
62.200001	73.584	171.5892
63.000000	73.550	171.0593
64.000000	73.506	170.4324
65.000000	73.462	169.8163
66.000000	73.416	169.2274
67.000000	73.372	168.6663
68.000000	73.327	168.1078
69.000000	73.280	167.5853
70.000000	73.236	167.0869
71.000000	73.190	166.5773
72.000000	73.141	166.0933
73.000000	73.093	165.6432
74.000000	73.048	165.1994
75.000000	73.001	164.7521
76.199997	72.943	164.2664
77.500000	72.884	163.7582
78.800003	72.823	163.2649
80.000000	72.767	162.8286
81.199997	72.710	162.4075
82.500000	72.649	161.9738
83.800003	72.589	161.5526
85.000000	72.533	161.1788
86.199997	72.478	160.8262
87.500000	72.419	160.4449
88.500000	72.373	160.1689
90.000000	72.304	159.7691
91.199997	72.250	159.4688
92.500000	72.191	159.1599
93.800003	72.133	158.8489
95.000000	72.077	158.5819
96.199997	72.024	158.3348
97.500000	71.967	158.0546
98.800003	71.909	157.7823
100.000000	71.855	157.5562
101.500000	71.791	157.2952
103.000000	71.729	157.0068
104.400002	71.667	156.7739
106.000000	71.599	156.5200
107.500000	71.537	156.2958
109.000000	71.475	156.0818
110.599998	71.408	155.8554
112.000000	71.351	155.6824
113.800003	71.277	155.4397
115.000000	71.229	155.3107
117.199997	71.140	155.0635
118.000000	71.108	154.9827
120.599998	71.006	154.7353
122.000000	70.949	154.6035
124.099998	70.868	154.4161
125.000000	70.835	154.3582
126.500000	70.786	154.2292
128.000000	70.735	154.1260
131.500000	70.619	153.8866
132.000000	70.602	153.8519
134.000000	70.538	153.7485
136.000000	70.472	153.6343
138.000000	70.413	153.5480
140.000000	70.348	153.4606
143.000000	70.258	153.3515
145.000000	70.197	153.2784
147.500000	70.122	153.2310
150.000000	70.051	153.1705
152.500000	69.978	153.1284
155.000000	69.908	153.0927
157.500000	69.837	153.0660
160.000000	69.769	153.0558
162.500000	69.689	153.0508
165.000000	69.610	153.0602
167.500000	69.532	153.0844
170.000000	69.454	153.0865
172.500000	69.379	153.1338
175.000000	69.305	153.1539
177.500000	69.232	153.2134
180.000000	69.155	153.2610
182.500000	69.088	153.3179
185.000000	69.017	153.3676
187.500000	68.948	153.4494
190.000000	68.883	153.5283
192.500000	68.815	153.6044
195.000000	68.751	153.6849
197.500000	68.685	153.7748
200.000000	68.624	153.8714
203.000000	68.556	153.9803
206.000000	68.490	154.1028
209.000000	68.424	154.2194
212.000000	68.361	154.3516
214.000000	68.323	154.4726
218.000000	68.238	154.6516
220.000000	68.198	154.7723
224.000000	68.121	154.9566
227.000000	68.062	155.1188
230.000000	68.010	155.2593
233.000000	67.951	155.4329
236.000000	67.898	155.5962
240.000000	67.828	155.8348
243.000000	67.778	156.0004
247.000000	67.705	156.2330
250.000000	67.658	156.4091
254.000000	67.598	156.6641
258.000000	67.535	156.9130
262.000000	67.478	157.1643
265.000000	67.433	157.3571
269.000000	67.382	157.6009
272.000000	67.337	157.8053
276.000000	67.283	158.0797
280.000000	67.233	158.3342
285.000000	67.170	158.6550
290.000000	67.107	159.0243
295.000000	67.049	159.3420
300.000000	66.990	159.6855
304.000000	66.945	159.9626
307.000000	66.914	160.1757
311.000000	66.870	160.4442
315.000000	66.823	160.6955
320.000000	66.776	161.0886
325.000000	66.724	161.4411
330.000000	66.678	161.7720
335.000000	66.628	162.1124
340.000000	66.585	162.5123
345.000000	66.540	162.8092
350.000000	66.498	163.2075
355.000000	66.461	163.5327
360.000000	66.421	163.9034
365.000000	66.379	164.2648
370.000000	66.349	164.6033
375.000000	66.310	164.9696
382.000000	66.254	165.4709
387.000000	66.226	165.8456
395.000000	66.181	166.3972
400.000000	66.148	166.7205
406.000000	66.109	167.1732
412.000000	66.078	167.5659
418.000000	66.049	168.0053
425.000000	66.018	168.5098
431.000000	65.989	168.9200
437.000000	65.960	169.3609
444.000000	65.928	169.8073
450.000000	65.905	170.2286
455.000000	65.891	170.5435
462.000000	65.858	171.0814
468.000000	65.839	171.4468
475.000000	65.814	171.9502
482.000000	65.790	172.4233
487.000000	65.779	172.7626
494.000000	65.758	173.2163
500.000000	65.741	173.6640
508.000000	65.724	174.1883
515.000000	65.708	174.6323
522.000000	65.707	175.1143
530.000000	65.688	175.6390
538.000000	65.678	176.1972
545.000000	65.668	176.6909
552.000000	65.664	177.1426
560.000000	65.655	177.7143
570.000000	65.642	178.3508
580.000000	65.638	179.0222
590.000000	65.632	179.7316
600.000000	65.626	-179.6400
608.000000	65.628	-179.1138
615.000000	65.628	-178.6236
622.000000	65.631	-178.1620
630.000000	65.626	-177.5989
640.000000	65.632	-176.9280
650.000000	65.646	-176.2480
660.000000	65.655	-175.5944
670.000000	65.666	-174.9141
680.000000	65.683	-174.2158
690.000000	65.697	-173.5268
700.000000	65.716	-172.8540
710.000000	65.742	-172.1403
720.000000	65.766	-171.4407
730.000000	65.792	-170.7462
740.000000	65.821	-170.0591
750.000000	65.851	-169.3588
762.000000	65.896	-168.4709
775.000000	65.945	-167.5637
788.000000	66.001	-166.6454
800.000000	66.054	-165.7964
812.000000	66.101	-164.9771
825.000000	66.162	-164.0493
838.000000	66.223	-163.1411
850.000000	66.289	-162.3400
862.000000	66.355	-161.5321
875.000000	66.441	-160.6776
885.000000	66.505	-159.9824
900.000000	66.613	-159.0004
912.000000	66.707	-158.2460
925.000000	66.814	-157.4551
938.000000	66.927	-156.6840
950.000000	67.039	-155.9822
962.000000	67.159	-155.3688
975.000000	67.293	-154.7468
988.000000	67.438	-154.2039
1000.000000	67.578	-153.7780
1015.000000	67.753	-153.2847
1030.000000	67.932	-152.9862
1044.000000	68.092	-152.7299
1060.000000	68.277	-152.5510
1075.000000	68.432	-152.4495
1090.000000	68.582	-152.3452
1106.000000	68.738	-152.3241
1120.000000	68.868	-152.2720
1138.000000	69.028	-152.2858
1150.000000	69.137	-152.3018
1172.000000	69.326	-152.3157
1180.000000	69.391	-152.3238
1206.000000	69.608	-152.3671
1220.000000	69.721	-152.4506
1241.000000	69.890	-152.5715
1250.000000	69.965	-152.6464
1265.000000	70.054	-152.7689
1280.000000	70.143	-152.9093
1315.000000	70.343	-153.3461
1320.000000	70.374	-153.3793
1340.000000	70.486	-153.6965
1360.000000	70.594	-154.0459
1380.000000	70.700	-154.4272
1400.000000	70.801	-154.8093
1430.000000	70.947	-155.5140
1450.000000	71.045	-156.0175
1475.000000	71.157	-156.6677
1500.000000	71.269	-157.4203
1525.000000	71.367	-158.2302
1550.000000	71.464	-159.0645
1575.000000	71.555	-159.9882
1600.000000	71.638	-160.9338
1625.000000	71.751	-161.9421
1650.000000	71.854	-162.9895
1675.000000	71.951	-164.0546
1700.000000	72.038	-165.1462
1725.000000	72.120	-166.2933
1750.000000	72.189	-167.4155
1775.000000	72.253	-168.5737
1800.000000	72.308	-169.7037
1825.000000	72.354	-170.8558
1850.000000	72.390	-171.9756
1875.000000	72.420	-173.0938
1900.000000	72.444	-174.1831
1925.000000	72.455	-175.2362
1950.000000	72.459	-176.2418
1975.000000	72.459	-177.2267
2000.000000	72.457	-178.2499
2030.000000	72.426	-179.2728
2060.000000	72.387	179.7047
2090.000000	72.347	178.7615
2120.000000	72.293	177.8341
2140.000000	72.255	177.2782
2180.000000	72.172	176.2719
2200.000000	72.132	175.8280
2240.000000	72.031	174.9767
2270.000000	71.965	174.4611
2300.000000	71.887	174.0052
2330.000000	71.816	173.6031
2360.000000	71.745	173.2761
2400.000000	71.648	172.9410
2430.000000	71.577	172.7678
2470.000000	71.490	172.6373
2500.000000	71.434	172.6387
2540.000000	71.364	172.7048
2580.000000	71.312	172.8196
2620.000000	71.267	173.0134
2650.000000	71.236	173.1284
2690.000000	71.210	173.3394
2720.000000	71.199	173.4653
2760.000000	71.191	173.6692
2800.000000	71.180	173.8872
2850.000000	71.188	174.1304
2900.000000	71.203	174.4437
2950.000000	71.237	174.7875
3000.000000	71.272	175.1309
3040.000000	71.334	175.3636
3070.000000	71.378	175.5247
3110.000000	71.445	175.7397
3150.000000	71.520	175.8995
3200.000000	71.624	176.0225
3250.000000	71.748	176.0953
3300.000000	71.880	176.0524
3350.000000	72.021	175.8936
3400.000000	72.172	175.6028
3450.000000	72.332	175.1743
3500.000000	72.497	174.5388
3550.000000	72.659	173.7349
3600.000000	72.816	172.7369
3650.000000	72.969	171.5082
3700.000000	73.113	170.0773
3750.000000	73.237	168.3895
3820.000000	73.373	165.7288
3870.000000	73.429	163.5958
3950.000000	73.450	159.8496
4000.000000	73.410	157.3581
4060.000000	73.276	154.4456
4120.000000	73.083	151.5874
4180.000000	72.814	149.1262
4250.000000	72.427	146.8370
4310.000000	72.042	145.5247
4370.000000	71.635	144.9422
4440.000000	71.160	145.1107
4500.000000	70.781	146.0322
4550.000000	70.506	147.2994
4620.000000	70.235	149.6062
4680.000000	70.139	151.8227
4750.000000	70.179	154.1739
4820.000000	70.351	155.5874
4870.000000	70.516	155.8381
4940.000000	70.710	155.0739
5000.000000	70.785	153.6998
5080.000000	70.706	151.4836
5150.000000	70.489	149.6348
5220.000000	70.163	148.1482
5300.000000	69.718	147.3350
5380.000000	69.237	147.4752
5450.000000	68.865	148.3908
5520.000000	68.562	149.4968
5600.000000	68.245	150.6477
5700.000000	67.809	152.4333
5800.000000	67.409	154.8140
5900.000000	67.069	157.8550
6000.000000	66.840	161.3293
6080.000000	66.713	164.0233
6150.000000	66.643	166.4980
6220.000000	66.621	168.7867
6300.000000	66.643	171.1744
6400.000000	66.775	174.1703
6500.000000	66.941	176.8247
6600.000000	67.107	179.4573
6700.000000	67.294	-177.9783
6800.000000	67.516	-175.3479
6900.000000	67.761	-172.8121
7000.000000	68.051	-170.1362
7100.000000	68.411	-167.6492
7200.000000	68.808	-165.3119
7300.000000	69.282	-163.3079
7400.000000	69.784	-161.5025
7500.000000	70.359	-160.1678
7620.000000	71.109	-159.1595
7750.000000	72.002	-159.2022
7880.000000	72.958	-160.9056
8000.000000	73.814	-164.4929
8120.000000	74.424	-170.5085
8250.000000	74.791	-179.9020
8380.000000	74.720	168.7657
8500.000000	74.218	158.7094
8620.000000	73.358	150.8227
8750.000000	72.187	145.3743
8850.000000	71.240	142.9919
9000.000000	69.823	141.7946
9120.000000	68.768	142.2966
9250.000000	67.719	143.7484
9380.000000	66.777	146.0254
9500.000000	66.012	148.4782
9620.000000	65.316	151.3792
9750.000000	64.671	154.7686
9880.000000	64.104	158.3452
10000.000000	63.666	161.6695
10150.000000	63.280	166.1672
10300.000000	62.995	170.5182
10440.000000	62.850	174.4355
10600.000000	62.744	178.9202
10750.000000	62.791	-177.3821
10900.000000	62.868	-174.1167
11060.000000	63.035	-171.2428
11200.000000	63.222	-169.2363
11380.000000	63.401	-167.6758
11500.000000	63.524	-167.0065
11720.000000	63.608	-166.5845
11800.000000	63.603	-166.5056
12060.000000	63.462	-166.1932
12200.000000	63.292	-166.0473
12410.000000	62.982	-165.0510
12500.000000	62.853	-164.4105
12650.000000	62.604	-163.2873
12800.000000	62.408	-161.7445
13150.000000	62.094	-158.2948
13200.000000	62.079	-157.9053
13400.000000	62.117	-156.7977
13600.000000	62.227	-156.9600
13800.000000	62.322	-159.3997
14000.000000	62.240	-164.2138
14300.000000	61.275	-174.0557
14500.000000	59.971	-179.4565
14750.000000	57.949	177.3831
15000.000000	55.798	178.1668
15250.000000	53.801	-178.2800
15500.000000	52.115	-171.3680
15750.000000	50.661	-163.6037
16000.000000	49.677	-154.7549
16250.000000	49.195	-145.4485
16500.000000	49.366	-136.6783
16750.000000	49.689	-133.2042
17000.000000	49.840	-130.5938
17250.000000	49.512	-129.1637
17500.000000	49.308	-129.4234
17750.000000	48.365	-128.9198
18000.000000	47.428	-127.7760
18250.000000	45.615	-122.3043
18500.000000	44.171	-109.3413
18750.000000	42.728	-95.3323
19000.000000	43.149	-74.2516
19250.000000	44.697	-64.2833
19500.000000	47.393	-61.5426
19750.000000	48.435	-75.3911
