* Measurement data measured by REW V5.20.13
* Source: C:\Users\marcu\OneDrive\Desktop\audio_db\TANGZU Wan’er Foam L.txt
* Format: Comma/Tab/Space delimited data
* Dated: May 29, 2023 8:27:35 AM
* REW Settings:
*  C-weighting compensation: Off
*  Target level: 75.0 dB
* Note: ; Measurement imported from C:\Users\marcu\OneDrive\Desktop\audio_db\TANGZU Wan’er Foam L.txt Format: Comma/Tab/Space delimited data 54613 values loaded, 0 Hz to 20,000 Hz 
* Measurement: TANGZU Wan’er Foam L
* Smoothing: None
* Frequency Step: 1/48 octave
* Start Frequency: 1.000 Hz
*
* Freq(Hz)	SPL(dB)	Phase(degrees)
1.000000	55.575	175.6383
1.015000	55.559	174.7636
1.030000	55.540	173.8687
1.044000	55.519	173.0153
1.060000	55.491	172.0185
1.075000	55.460	171.0633
1.090000	55.426	170.0881
1.106000	55.384	169.0289
1.120000	55.343	168.1018
1.138000	55.283	166.9105
1.150000	55.238	166.1141
1.172000	55.149	164.6437
1.180000	55.115	164.1041
1.206000	54.994	162.3246
1.220000	54.924	161.3459
1.241000	54.813	159.8442
1.250000	54.763	159.1863
1.265000	54.679	158.0682
1.280000	54.591	156.9206
1.315000	54.379	154.1099
1.320000	54.347	153.6914
1.340000	54.221	151.9709
1.360000	54.092	150.1697
1.380000	53.961	148.2806
1.400000	53.829	146.2960
1.430000	53.631	143.1239
1.450000	53.500	140.8681
1.475000	53.334	137.8758
1.500000	53.145	134.6802
1.525000	52.931	131.2953
1.550000	52.698	127.7389
1.575000	52.453	124.0287
1.600000	52.201	120.1825
1.625000	51.949	116.2181
1.650000	51.703	112.1533
1.675000	51.468	108.0059
1.700000	51.252	103.7936
1.725000	51.060	99.5343
1.750000	50.899	95.2458
1.775000	50.774	90.9457
1.800000	50.691	86.6521
1.825000	50.657	82.3824
1.850000	50.675	78.0771
1.875000	50.737	73.5794
1.900000	50.840	68.9201
1.925000	50.979	64.1378
1.950000	51.148	59.2714
1.975000	51.345	54.3595
2.000000	51.564	49.4407
2.030000	51.851	43.5839
2.060000	52.156	37.8400
2.090000	52.473	32.2758
2.120000	52.792	26.9585
2.140000	53.003	23.5837
2.180000	53.410	17.3317
2.200000	53.602	14.4933
2.240000	54.001	9.2887
2.270000	54.324	5.7250
2.300000	54.660	2.4210
2.330000	55.007	-0.6510
2.360000	55.359	-3.5193
2.400000	55.829	-7.0754
2.430000	56.176	-9.5775
2.470000	56.624	-12.7473
2.500000	56.941	-15.0363
2.540000	57.333	-18.0238
2.580000	57.681	-20.9744
2.620000	57.999	-23.7286
2.650000	58.222	-25.6500
2.690000	58.501	-28.0394
2.720000	58.697	-29.7159
2.760000	58.943	-31.8174
2.800000	59.171	-33.7889
2.850000	59.437	-36.1089
2.900000	59.683	-38.3141
2.950000	59.912	-40.4415
3.000000	60.112	-42.4186
3.040000	60.252	-43.8810
3.070000	60.346	-44.9109
3.110000	60.461	-46.1988
3.150000	60.565	-47.3929
3.200000	60.686	-48.7606
3.250000	60.800	-49.9971
3.300000	60.913	-51.1111
3.350000	61.015	-52.0751
3.400000	61.100	-52.8785
3.450000	61.174	-53.5400
3.500000	61.242	-54.0776
3.550000	61.311	-54.5101
3.600000	61.386	-54.8556
3.650000	61.473	-55.1324
3.700000	61.573	-55.3207
3.750000	61.675	-55.3572
3.820000	61.825	-55.2205
3.870000	61.939	-55.0412
3.950000	62.140	-54.7202
4.000000	62.280	-54.5586
4.060000	62.466	-54.4385
4.120000	62.673	-54.2897
4.180000	62.897	-54.1271
4.250000	63.172	-53.9711
4.310000	63.412	-53.9100
4.370000	63.652	-53.9565
4.440000	63.930	-54.1780
4.500000	64.177	-54.4766
4.550000	64.386	-54.7919
4.620000	64.678	-55.3229
4.680000	64.921	-55.8501
4.750000	65.190	-56.5350
4.820000	65.441	-57.3115
4.870000	65.615	-57.9409
4.940000	65.849	-58.8981
5.000000	66.039	-59.7634
5.080000	66.277	-60.9373
5.150000	66.468	-61.9491
5.220000	66.641	-62.9943
5.300000	66.821	-64.2247
5.380000	66.984	-65.4525
5.450000	67.116	-66.4913
5.520000	67.239	-67.4720
5.600000	67.363	-68.5560
5.700000	67.498	-69.8564
5.800000	67.621	-71.0714
5.900000	67.743	-72.1746
6.000000	67.854	-73.1594
6.080000	67.939	-73.8815
6.150000	68.013	-74.4797
6.220000	68.092	-75.0580
6.300000	68.188	-75.6810
6.400000	68.310	-76.3896
6.500000	68.438	-77.0716
6.600000	68.571	-77.7812
6.700000	68.714	-78.5103
6.800000	68.863	-79.2469
6.900000	69.013	-80.0186
7.000000	69.161	-80.8502
7.100000	69.310	-81.7388
7.200000	69.457	-82.6694
7.300000	69.597	-83.6288
7.400000	69.729	-84.6179
7.500000	69.855	-85.6479
7.620000	69.996	-86.8976
7.750000	70.135	-88.2222
7.880000	70.258	-89.5396
8.000000	70.362	-90.7230
8.120000	70.461	-91.8436
8.250000	70.559	-92.9984
8.380000	70.653	-94.0961
8.500000	70.741	-95.0547
8.620000	70.828	-95.9572
8.750000	70.923	-96.8993
8.850000	70.998	-97.6127
9.000000	71.115	-98.6472
9.120000	71.208	-99.4668
9.250000	71.311	-100.3659
9.380000	71.414	-101.2670
9.500000	71.507	-102.1008
9.620000	71.598	-102.9412
9.750000	71.694	-103.8566
9.880000	71.778	-104.7601
10.000000	71.837	-105.5800
10.150000	71.893	-106.5879
10.300000	71.940	-107.5565
10.440000	71.973	-108.4232
10.600000	72.007	-109.3747
10.750000	72.039	-110.2263
10.900000	72.069	-111.0435
11.060000	72.102	-111.8965
11.200000	72.131	-112.6238
11.380000	72.167	-113.5494
11.500000	72.190	-114.1650
11.720000	72.228	-115.2844
11.800000	72.240	-115.6891
12.060000	72.272	-116.9899
12.200000	72.282	-117.6704
12.410000	72.295	-118.6646
12.500000	72.305	-119.0771
12.650000	72.330	-119.7465
12.800000	72.358	-120.3979
13.150000	72.419	-121.8574
13.200000	72.428	-122.0627
13.400000	72.461	-122.8760
13.600000	72.493	-123.6862
13.800000	72.522	-124.4979
14.000000	72.548	-125.3057
14.300000	72.579	-126.5052
14.500000	72.596	-127.2860
14.750000	72.614	-128.2376
15.000000	72.630	-129.1619
15.250000	72.646	-130.0679
15.500000	72.661	-130.9648
15.750000	72.677	-131.8566
16.000000	72.693	-132.7443
16.250000	72.712	-133.6184
16.500000	72.732	-134.4741
16.750000	72.750	-135.3039
17.000000	72.768	-136.1098
17.250000	72.787	-136.8956
17.500000	72.807	-137.6676
17.750000	72.826	-138.4298
18.000000	72.844	-139.1794
18.250000	72.860	-139.9132
18.500000	72.875	-140.6220
18.750000	72.888	-141.3046
19.000000	72.901	-141.9597
19.250000	72.914	-142.5946
19.500000	72.928	-143.2159
19.750000	72.942	-143.8287
20.000000	72.955	-144.4359
20.299999	72.969	-145.1512
20.600000	72.980	-145.8452
20.900000	72.989	-146.5126
21.200001	72.995	-147.1542
21.400000	73.000	-147.5732
21.799999	73.008	-148.3988
22.000000	73.010	-148.8075
22.400000	73.012	-149.6119
22.700001	73.010	-150.1934
23.000000	73.007	-150.7486
23.299999	73.006	-151.2830
23.600000	73.007	-151.8096
24.000000	73.013	-152.5238
24.299999	73.017	-153.0807
24.700001	73.019	-153.8472
25.000000	73.017	-154.4240
25.400000	73.007	-155.1683
25.799999	72.995	-155.8629
26.200001	72.984	-156.5063
26.500000	72.978	-156.9661
26.900000	72.973	-157.5671
27.200001	72.971	-158.0190
27.600000	72.967	-158.6245
28.000000	72.961	-159.2179
28.500000	72.948	-159.9115
29.000000	72.940	-160.5521
29.500000	72.938	-161.1894
30.000000	72.935	-161.8685
30.400000	72.928	-162.4283
30.700001	72.918	-162.8370
31.100000	72.902	-163.3475
31.500000	72.888	-163.8228
32.000000	72.873	-164.4021
32.500000	72.861	-164.9933
33.000000	72.847	-165.5828
33.500000	72.831	-166.1479
34.000000	72.817	-166.6956
34.500000	72.802	-167.2410
35.000000	72.786	-167.7711
35.500000	72.770	-168.2626
36.000000	72.758	-168.7281
36.500000	72.751	-169.2117
37.000000	72.743	-169.7347
37.500000	72.726	-170.2656
38.200001	72.694	-170.9381
38.700001	72.673	-171.3699
39.500000	72.646	-172.0752
40.000000	72.625	-172.5274
40.599998	72.598	-173.0334
41.200001	72.575	-173.4912
41.799999	72.558	-173.9468
42.500000	72.537	-174.5046
43.099998	72.516	-174.9720
43.700001	72.495	-175.4069
44.400002	72.472	-175.8911
45.000000	72.456	-176.3119
45.500000	72.441	-176.6740
46.200001	72.414	-177.1770
46.799999	72.387	-177.5692
47.500000	72.361	-177.9882
48.200001	72.340	-178.4278
48.700001	72.323	-178.7568
49.400002	72.296	-179.1934
50.000000	72.275	-179.5439
50.799999	72.251	179.9781
51.500000	72.227	179.5637
52.200001	72.202	179.1754
53.000000	72.174	178.7424
53.799999	72.145	178.3132
54.500000	72.119	177.9423
55.200001	72.089	177.5885
56.000000	72.059	177.2184
57.000000	72.029	176.6992
58.000000	71.983	176.1689
59.000000	71.943	175.7799
60.000000	71.919	175.3262
60.799999	71.894	174.9478
61.500000	71.872	174.6263
62.200001	71.845	174.2920
63.000000	71.807	173.9686
64.000000	71.770	173.6297
65.000000	71.735	173.2327
66.000000	71.696	172.8544
67.000000	71.658	172.4682
68.000000	71.617	172.1075
69.000000	71.579	171.7482
70.000000	71.537	171.4152
71.000000	71.500	171.1147
72.000000	71.465	170.7939
73.000000	71.426	170.4757
74.000000	71.391	170.1879
75.000000	71.360	169.8510
76.199997	71.308	169.4566
77.500000	71.258	169.0963
78.800003	71.208	168.7658
80.000000	71.167	168.4407
81.199997	71.117	168.1627
82.500000	71.071	167.8763
83.800003	71.019	167.6213
85.000000	70.981	167.3893
86.199997	70.945	167.0939
87.500000	70.891	166.7670
88.500000	70.856	166.5926
90.000000	70.806	166.2534
91.199997	70.764	166.0280
92.500000	70.717	165.7855
93.800003	70.671	165.5723
95.000000	70.628	165.3801
96.199997	70.589	165.1982
97.500000	70.548	164.9685
98.800003	70.506	164.7354
100.000000	70.461	164.5482
101.500000	70.412	164.3705
103.000000	70.364	164.1904
104.400002	70.320	164.0040
106.000000	70.263	163.8346
107.500000	70.218	163.6230
109.000000	70.166	163.4603
110.599998	70.116	163.2721
112.000000	70.073	163.1399
113.800003	70.015	162.9677
115.000000	69.979	162.8734
117.199997	69.913	162.6723
118.000000	69.889	162.5911
120.599998	69.805	162.4099
122.000000	69.767	162.3112
124.099998	69.708	162.1564
125.000000	69.678	162.0983
126.500000	69.643	162.0418
128.000000	69.606	161.9349
131.500000	69.521	161.7636
132.000000	69.509	161.7346
134.000000	69.458	161.6388
136.000000	69.411	161.5624
138.000000	69.365	161.4714
140.000000	69.324	161.3863
143.000000	69.254	161.3329
145.000000	69.208	161.3253
147.500000	69.148	161.2742
150.000000	69.096	161.2175
152.500000	69.048	161.1981
155.000000	68.991	161.1951
157.500000	68.935	161.2062
160.000000	68.892	161.1846
162.500000	68.829	161.1743
165.000000	68.767	161.2062
167.500000	68.707	161.2565
170.000000	68.644	161.2772
172.500000	68.583	161.2875
175.000000	68.526	161.2969
177.500000	68.471	161.3800
180.000000	68.421	161.4357
182.500000	68.359	161.5167
185.000000	68.308	161.5825
187.500000	68.254	161.6531
190.000000	68.201	161.6924
192.500000	68.150	161.7890
195.000000	68.094	161.8719
197.500000	68.043	161.9813
200.000000	67.994	162.0666
203.000000	67.951	162.1678
206.000000	67.902	162.2720
209.000000	67.851	162.3881
212.000000	67.800	162.5167
214.000000	67.768	162.6327
218.000000	67.712	162.8194
220.000000	67.680	162.9362
224.000000	67.618	163.1053
227.000000	67.582	163.2451
230.000000	67.543	163.3911
233.000000	67.496	163.5365
236.000000	67.454	163.7294
240.000000	67.405	163.9176
243.000000	67.364	164.0804
247.000000	67.318	164.2703
250.000000	67.278	164.4810
254.000000	67.233	164.7286
258.000000	67.184	164.9423
262.000000	67.146	165.1523
265.000000	67.118	165.3017
269.000000	67.078	165.5708
272.000000	67.044	165.7694
276.000000	67.003	165.9720
280.000000	66.964	166.2498
285.000000	66.922	166.5471
290.000000	66.879	166.8452
295.000000	66.832	167.1921
300.000000	66.791	167.4911
304.000000	66.757	167.7280
307.000000	66.735	167.9185
311.000000	66.711	168.1613
315.000000	66.679	168.4134
320.000000	66.640	168.7762
325.000000	66.605	169.0833
330.000000	66.571	169.4207
335.000000	66.538	169.6866
340.000000	66.506	170.0333
345.000000	66.472	170.3701
350.000000	66.441	170.7036
355.000000	66.415	170.9935
360.000000	66.391	171.3644
365.000000	66.351	171.6804
370.000000	66.334	172.0040
375.000000	66.304	172.3069
382.000000	66.277	172.7750
387.000000	66.253	173.1113
395.000000	66.214	173.6138
400.000000	66.198	173.9795
406.000000	66.168	174.3375
412.000000	66.148	174.7418
418.000000	66.131	175.1269
425.000000	66.105	175.5632
431.000000	66.081	175.9392
437.000000	66.066	176.3342
444.000000	66.043	176.7833
450.000000	66.028	177.1470
455.000000	66.014	177.4785
462.000000	65.995	177.8801
468.000000	65.982	178.2990
475.000000	65.966	178.7365
482.000000	65.955	179.1659
487.000000	65.937	179.4429
494.000000	65.927	179.8995
500.000000	65.916	-179.7376
508.000000	65.907	-179.2728
515.000000	65.893	-178.8431
522.000000	65.879	-178.3906
530.000000	65.864	-177.8968
538.000000	65.849	-177.3952
545.000000	65.842	-176.9880
552.000000	65.824	-176.5660
560.000000	65.813	-176.0517
570.000000	65.793	-175.4596
580.000000	65.769	-174.6994
590.000000	65.740	-173.9341
600.000000	65.725	-173.0037
608.000000	65.730	-172.2298
615.000000	65.762	-171.4270
622.000000	65.810	-170.7933
630.000000	65.878	-170.2892
640.000000	65.945	-169.8052
650.000000	65.998	-169.4338
660.000000	66.037	-169.1098
670.000000	66.058	-168.8687
680.000000	66.070	-168.5721
690.000000	66.030	-168.2743
700.000000	65.978	-167.6993
710.000000	65.960	-166.8912
720.000000	65.967	-166.0651
730.000000	65.973	-165.2658
740.000000	65.999	-164.4788
750.000000	66.033	-163.6992
762.000000	66.064	-162.7958
775.000000	66.109	-161.9275
788.000000	66.160	-161.0609
800.000000	66.207	-160.2021
812.000000	66.250	-159.4243
825.000000	66.299	-158.5035
838.000000	66.359	-157.6815
850.000000	66.410	-156.9191
862.000000	66.472	-156.0921
875.000000	66.534	-155.3106
885.000000	66.587	-154.6832
900.000000	66.678	-153.7664
912.000000	66.753	-153.0710
925.000000	66.836	-152.3053
938.000000	66.923	-151.5928
950.000000	67.012	-150.9406
962.000000	67.105	-150.3227
975.000000	67.208	-149.7021
988.000000	67.310	-149.0853
1000.000000	67.402	-148.6108
1015.000000	67.545	-147.9222
1030.000000	67.687	-147.3525
1044.000000	67.824	-146.8765
1060.000000	67.981	-146.3805
1075.000000	68.122	-145.9213
1090.000000	68.263	-145.5201
1106.000000	68.411	-145.1635
1120.000000	68.548	-144.8878
1138.000000	68.713	-144.5970
1150.000000	68.826	-144.4104
1172.000000	69.023	-144.1185
1180.000000	69.085	-144.0444
1206.000000	69.308	-143.8094
1220.000000	69.428	-143.7091
1241.000000	69.592	-143.5923
1250.000000	69.662	-143.5802
1265.000000	69.749	-143.5029
1280.000000	69.834	-143.4501
1315.000000	70.022	-143.4052
1320.000000	70.049	-143.4003
1340.000000	70.152	-143.3873
1360.000000	70.253	-143.3835
1380.000000	70.344	-143.3904
1400.000000	70.441	-143.4042
1430.000000	70.582	-143.4550
1450.000000	70.670	-143.4934
1475.000000	70.787	-143.5448
1500.000000	70.896	-143.6174
1525.000000	71.004	-143.6860
1550.000000	71.113	-143.7991
1575.000000	71.220	-143.9062
1600.000000	71.329	-144.0344
1625.000000	71.470	-144.1913
1650.000000	71.619	-144.3860
1675.000000	71.757	-144.5488
1700.000000	71.901	-144.8234
1725.000000	72.038	-145.0376
1750.000000	72.175	-145.3265
1775.000000	72.318	-145.6202
1800.000000	72.455	-146.0055
1825.000000	72.590	-146.3409
1850.000000	72.720	-146.7628
1875.000000	72.846	-147.1637
1900.000000	72.976	-147.6441
1925.000000	73.103	-148.1620
1950.000000	73.222	-148.7081
1975.000000	73.338	-149.2464
2000.000000	73.447	-149.8120
2030.000000	73.571	-150.5978
2060.000000	73.692	-151.4268
2090.000000	73.805	-152.2631
2120.000000	73.905	-153.1411
2140.000000	73.969	-153.7513
2180.000000	74.088	-155.0071
2200.000000	74.142	-155.6622
2240.000000	74.245	-156.9856
2270.000000	74.311	-158.0133
2300.000000	74.363	-159.0574
2330.000000	74.413	-160.0892
2360.000000	74.450	-161.1360
2400.000000	74.493	-162.5450
2430.000000	74.516	-163.5479
2470.000000	74.533	-164.9359
2500.000000	74.541	-165.9350
2540.000000	74.542	-167.2452
2580.000000	74.529	-168.5365
2620.000000	74.507	-169.7626
2650.000000	74.488	-170.6537
2690.000000	74.455	-171.7876
2720.000000	74.431	-172.6138
2760.000000	74.390	-173.6860
2800.000000	74.352	-174.6954
2850.000000	74.291	-175.8826
2900.000000	74.235	-176.9746
2950.000000	74.177	-178.0352
3000.000000	74.123	-179.0375
3040.000000	74.078	-179.7985
3070.000000	74.045	179.6523
3110.000000	74.002	178.9163
3150.000000	73.964	178.1661
3200.000000	73.918	177.3029
3250.000000	73.874	176.4189
3300.000000	73.838	175.4927
3350.000000	73.802	174.5405
3400.000000	73.770	173.4747
3450.000000	73.738	172.3613
3500.000000	73.703	170.9818
3550.000000	73.664	169.2753
3600.000000	73.585	166.9353
3650.000000	73.359	163.2184
3700.000000	72.031	157.3635
3750.000000	70.903	176.2582
3820.000000	72.955	176.7937
3870.000000	73.208	173.4813
3950.000000	73.343	169.8290
4000.000000	73.345	167.9731
4060.000000	73.311	166.0525
4120.000000	73.242	164.1913
4180.000000	73.151	162.4489
4250.000000	73.022	160.4651
4310.000000	72.889	158.8051
4370.000000	72.732	157.1901
4440.000000	72.517	155.4391
4500.000000	72.314	154.0640
4550.000000	72.136	152.9376
4620.000000	71.869	151.5294
4680.000000	71.617	150.5257
4750.000000	71.313	149.4562
4820.000000	70.986	148.6391
4870.000000	70.745	148.1688
4940.000000	70.406	147.6872
5000.000000	70.122	147.4022
5080.000000	69.701	147.3079
5150.000000	69.331	147.4030
5220.000000	68.972	147.6733
5300.000000	68.582	148.1807
5380.000000	68.192	148.9554
5450.000000	67.860	149.7317
5520.000000	67.541	150.6725
5600.000000	67.194	151.8507
5700.000000	66.785	153.5419
5800.000000	66.393	155.4095
5900.000000	66.054	157.4618
6000.000000	65.735	159.7186
6080.000000	65.503	161.6003
6150.000000	65.315	163.2069
6220.000000	65.146	164.9928
6300.000000	64.964	166.9642
6400.000000	64.871	169.5400
6500.000000	64.801	172.2114
6600.000000	64.769	174.7963
6700.000000	64.764	177.4013
6800.000000	64.782	-179.9526
6900.000000	64.854	-177.2058
7000.000000	64.945	-174.6615
7100.000000	65.091	-172.1158
7200.000000	65.284	-169.7044
7300.000000	65.516	-167.4263
7400.000000	65.760	-165.2739
7500.000000	66.072	-163.4053
7620.000000	66.500	-161.4803
7750.000000	67.005	-159.9634
7880.000000	67.583	-159.0180
8000.000000	68.166	-159.2075
8120.000000	68.604	-160.0031
8250.000000	69.095	-162.3358
8380.000000	69.503	-165.9633
8500.000000	69.733	-170.2913
8620.000000	69.764	-175.4261
8750.000000	69.517	178.7310
8850.000000	69.159	174.6232
9000.000000	68.401	169.7177
9120.000000	67.679	167.0555
9250.000000	66.853	165.5322
9380.000000	66.047	165.1792
9500.000000	65.325	165.7473
9620.000000	64.681	166.9590
9750.000000	64.069	168.8670
9880.000000	63.519	171.1383
10000.000000	63.136	173.6495
10150.000000	62.774	176.9010
10300.000000	62.555	-179.3954
10440.000000	62.488	-175.8923
10600.000000	62.474	-171.9913
10750.000000	62.596	-168.6981
10900.000000	62.833	-165.1660
11060.000000	63.234	-161.7543
11200.000000	63.749	-159.2239
11380.000000	64.601	-157.0585
11500.000000	65.313	-156.7701
11720.000000	66.828	-159.4961
11800.000000	67.419	-161.9003
12060.000000	68.923	-178.0351
12200.000000	68.885	169.2422
12410.000000	67.474	152.6456
12500.000000	66.555	147.8949
12650.000000	64.895	143.1382
12800.000000	63.273	141.5560
13150.000000	60.100	144.0269
13200.000000	59.666	144.8420
13400.000000	58.270	148.8156
13600.000000	57.093	153.3516
13800.000000	56.058	158.6420
14000.000000	55.247	163.4919
14300.000000	54.145	171.1201
14500.000000	53.640	175.5245
14750.000000	53.299	-179.4390
15000.000000	52.936	-174.9464
15250.000000	52.804	-172.3738
15500.000000	52.325	-171.7330
15750.000000	51.658	-170.3610
16000.000000	50.864	-168.6007
16250.000000	50.591	-163.7916
16500.000000	50.501	-157.6936
16750.000000	50.822	-152.3259
17000.000000	51.549	-150.3777
17250.000000	51.685	-159.7329
17500.000000	46.544	-150.9478
17750.000000	50.670	-117.2983
18000.000000	53.356	-123.2722
18250.000000	54.370	-129.7740
18500.000000	54.719	-135.1400
18750.000000	54.864	-140.4698
19000.000000	54.748	-146.1810
19250.000000	54.429	-153.4761
19500.000000	53.778	-160.4987
19750.000000	52.292	-169.4041
