* Measurement data measured by REW V5.20.13
* Source: C:\Users\marcu\OneDrive\Desktop\audio_db\XENNS Top Foam L.txt
* Format: Comma/Tab/Space delimited data
* Dated: Jun 9, 2023 6:56:34 PM
* REW Settings:
*  C-weighting compensation: Off
*  Target level: 75.0 dB
* Note: ; Measurement imported from C:\Users\marcu\OneDrive\Desktop\audio_db\XENNS Top Foam L.txt Format: Comma/Tab/Space delimited data 54613 values loaded, 0 Hz to 20,000 Hz 
* Measurement: XENNS Top Foam L
* Smoothing: None
* Frequency Step: 1/48 octave
* Start Frequency: 1.000 Hz
*
* Freq(Hz)	SPL(dB)	Phase(degrees)
1.000000	55.341	173.8956
1.015000	55.194	173.4445
1.030000	55.032	172.9732
1.044000	54.866	172.5143
1.060000	54.657	171.9662
1.075000	54.441	171.4286
1.090000	54.205	170.8671
1.106000	53.926	170.2704
1.120000	53.639	169.9095
1.138000	53.210	169.6766
1.150000	52.890	169.6425
1.172000	52.245	169.7738
1.180000	51.994	169.8689
1.206000	51.131	170.2791
1.220000	50.642	170.5243
1.241000	49.889	170.8577
1.250000	49.562	170.9703
1.265000	49.015	171.0938
1.280000	48.471	171.1110
1.315000	47.238	170.5697
1.320000	47.069	170.4096
1.340000	46.418	169.5182
1.360000	45.817	168.1715
1.380000	45.277	166.2987
1.400000	44.811	163.8287
1.430000	44.276	158.8486
1.450000	44.046	154.5750
1.475000	43.920	147.9752
1.500000	43.946	139.4585
1.525000	44.105	129.1707
1.550000	44.381	117.4122
1.575000	44.759	104.4835
1.600000	45.223	90.6851
1.625000	45.760	76.3173
1.650000	46.354	61.6806
1.675000	46.990	47.0754
1.700000	47.652	32.8020
1.725000	48.327	19.1611
1.750000	48.999	6.4530
1.775000	49.652	-5.0219
1.800000	50.273	-14.9631
1.825000	50.845	-23.0704
1.850000	51.384	-29.2886
1.875000	51.949	-34.1332
1.900000	52.538	-37.7734
1.925000	53.146	-40.3577
1.950000	53.766	-42.0345
1.975000	54.393	-42.9525
2.000000	55.023	-43.2601
2.030000	55.772	-43.0326
2.060000	56.507	-42.3967
2.090000	57.217	-41.6089
2.120000	57.893	-40.9259
2.140000	58.320	-40.6555
2.180000	59.105	-40.9008
2.200000	59.457	-41.5641
2.240000	60.096	-43.1833
2.270000	60.526	-44.3651
2.300000	60.920	-45.5214
2.330000	61.283	-46.6545
2.360000	61.617	-47.7665
2.400000	62.027	-49.2202
2.430000	62.314	-50.2916
2.470000	62.675	-51.6992
2.500000	62.937	-52.7421
2.540000	63.280	-54.1195
2.580000	63.624	-55.4861
2.620000	63.946	-56.8369
2.650000	64.170	-57.8375
2.690000	64.448	-59.1531
2.720000	64.642	-60.1248
2.760000	64.886	-61.3984
2.800000	65.113	-62.6450
2.850000	65.381	-64.1620
2.900000	65.634	-65.6292
2.950000	65.877	-67.0436
3.000000	66.098	-68.4164
3.040000	66.258	-69.4846
3.070000	66.370	-70.2667
3.110000	66.510	-71.2827
3.150000	66.639	-72.2661
3.200000	66.791	-73.4463
3.250000	66.934	-74.5684
3.300000	67.072	-75.6282
3.350000	67.199	-76.6261
3.400000	67.312	-77.5654
3.450000	67.413	-78.4479
3.500000	67.506	-79.2756
3.550000	67.593	-80.0502
3.600000	67.678	-80.7737
3.650000	67.763	-81.4478
3.700000	67.848	-82.0663
3.750000	67.927	-82.6160
3.820000	68.030	-83.2891
3.870000	68.101	-83.7155
3.950000	68.216	-84.3337
4.000000	68.293	-84.6967
4.060000	68.390	-85.1150
4.120000	68.491	-85.4722
4.180000	68.594	-85.7814
4.250000	68.718	-86.1122
4.310000	68.827	-86.3960
4.370000	68.939	-86.7044
4.440000	69.075	-87.1057
4.500000	69.197	-87.4517
4.550000	69.301	-87.7454
4.620000	69.449	-88.1757
4.680000	69.575	-88.5726
4.750000	69.719	-89.0818
4.820000	69.861	-89.6484
4.870000	69.962	-90.0829
4.940000	70.103	-90.7263
5.000000	70.220	-91.3043
5.080000	70.370	-92.1031
5.150000	70.492	-92.8218
5.220000	70.607	-93.5787
5.300000	70.731	-94.4821
5.380000	70.847	-95.4019
5.450000	70.941	-96.2005
5.520000	71.027	-96.9794
5.600000	71.116	-97.8723
5.700000	71.214	-98.9829
5.800000	71.302	-100.0559
5.900000	71.385	-101.0615
6.000000	71.456	-102.0109
6.080000	71.509	-102.7343
6.150000	71.553	-103.3409
6.220000	71.599	-103.9227
6.300000	71.652	-104.5503
6.400000	71.717	-105.2798
6.500000	71.783	-105.9727
6.600000	71.854	-106.6553
6.700000	71.930	-107.3170
6.800000	72.010	-107.9569
6.900000	72.093	-108.6010
7.000000	72.177	-109.2712
7.100000	72.265	-109.9570
7.200000	72.354	-110.6567
7.300000	72.441	-111.3746
7.400000	72.526	-112.1171
7.500000	72.608	-112.8844
7.620000	72.704	-113.8171
7.750000	72.798	-114.8207
7.880000	72.884	-115.8323
8.000000	72.958	-116.7491
8.120000	73.026	-117.6249
8.250000	73.093	-118.5394
8.380000	73.156	-119.4110
8.500000	73.214	-120.1671
8.620000	73.270	-120.8778
8.750000	73.332	-121.6122
8.850000	73.381	-122.1583
9.000000	73.458	-122.9361
9.120000	73.520	-123.5439
9.250000	73.590	-124.2037
9.380000	73.663	-124.8563
9.500000	73.729	-125.4609
9.620000	73.794	-126.0748
9.750000	73.865	-126.7456
9.880000	73.925	-127.4143
10.000000	73.964	-128.0300
10.150000	73.998	-128.7959
10.300000	74.021	-129.5370
10.440000	74.032	-130.2073
10.600000	74.038	-130.9429
10.750000	74.043	-131.5946
10.900000	74.045	-132.2145
11.060000	74.047	-132.8469
11.200000	74.048	-133.3734
11.380000	74.050	-134.0305
11.500000	74.052	-134.4582
11.720000	74.054	-135.2266
11.800000	74.054	-135.5043
12.060000	74.053	-136.3963
12.200000	74.049	-136.8711
12.410000	74.043	-137.5750
12.500000	74.046	-137.8726
12.650000	74.058	-138.3627
12.800000	74.073	-138.8474
13.150000	74.105	-139.9591
13.200000	74.109	-140.1172
13.400000	74.125	-140.7479
13.600000	74.139	-141.3781
13.800000	74.150	-142.0098
14.000000	74.158	-142.6371
14.300000	74.165	-143.5649
14.500000	74.168	-144.1653
14.750000	74.170	-144.8939
15.000000	74.173	-145.5989
15.250000	74.177	-146.2894
15.500000	74.183	-146.9773
15.750000	74.192	-147.6679
16.000000	74.202	-148.3656
16.250000	74.216	-149.0615
16.500000	74.232	-149.7494
16.750000	74.246	-150.4193
17.000000	74.259	-151.0670
17.250000	74.272	-151.6938
17.500000	74.287	-152.3029
17.750000	74.301	-152.9009
18.000000	74.314	-153.4874
18.250000	74.326	-154.0619
18.500000	74.336	-154.6165
18.750000	74.344	-155.1474
19.000000	74.352	-155.6515
19.250000	74.359	-156.1308
19.500000	74.367	-156.5923
19.750000	74.375	-157.0417
20.000000	74.384	-157.4872
20.299999	74.395	-158.0182
20.600000	74.403	-158.5432
20.900000	74.408	-159.0562
21.200001	74.412	-159.5522
21.400000	74.414	-159.8754
21.799999	74.418	-160.5156
22.000000	74.420	-160.8391
22.400000	74.422	-161.5027
22.700001	74.420	-162.0114
23.000000	74.414	-162.5165
23.299999	74.405	-163.0039
23.600000	74.395	-163.4670
24.000000	74.385	-164.0522
24.299999	74.381	-164.4831
24.700001	74.378	-165.0708
25.000000	74.376	-165.5271
25.400000	74.372	-166.1413
25.799999	74.363	-166.7260
26.200001	74.354	-167.2552
26.500000	74.350	-167.6229
26.900000	74.353	-168.1056
27.200001	74.359	-168.4868
27.600000	74.365	-169.0323
28.000000	74.363	-169.5949
28.500000	74.349	-170.2501
29.000000	74.333	-170.8145
29.500000	74.326	-171.3384
30.000000	74.320	-171.8951
30.400000	74.312	-172.3666
30.700001	74.302	-172.7168
31.100000	74.285	-173.1562
31.500000	74.269	-173.5624
32.000000	74.253	-174.0508
32.500000	74.240	-174.5500
33.000000	74.226	-175.0604
33.500000	74.210	-175.5625
34.000000	74.195	-176.0488
34.500000	74.181	-176.5265
35.000000	74.167	-177.0003
35.500000	74.153	-177.4690
36.000000	74.137	-177.9293
36.500000	74.119	-178.3743
37.000000	74.101	-178.7971
37.500000	74.083	-179.2021
38.200001	74.060	-179.7713
38.700001	74.042	179.8131
39.500000	74.008	179.1723
40.000000	73.988	178.7903
40.599998	73.968	178.3216
41.200001	73.946	177.8328
41.799999	73.919	177.3610
42.500000	73.887	176.8694
43.099998	73.867	176.4724
43.700001	73.852	176.0533
44.400002	73.831	175.5245
45.000000	73.808	175.0656
45.500000	73.785	174.7045
46.200001	73.752	174.2397
46.799999	73.727	173.8541
47.500000	73.698	173.3873
48.200001	73.663	172.9388
48.700001	73.637	172.6596
49.400002	73.611	172.2972
50.000000	73.594	171.9528
50.799999	73.566	171.4491
51.500000	73.536	171.0337
52.200001	73.505	170.6476
53.000000	73.470	170.2297
53.799999	73.437	169.8329
54.500000	73.410	169.4620
55.200001	73.377	169.0844
56.000000	73.338	168.6992
57.000000	73.295	168.2134
58.000000	73.245	167.7408
59.000000	73.204	167.3262
60.000000	73.166	166.8488
60.799999	73.128	166.4675
61.500000	73.092	166.1506
62.200001	73.055	165.8455
63.000000	73.012	165.5284
64.000000	72.965	165.1440
65.000000	72.918	164.7178
66.000000	72.867	164.3062
67.000000	72.818	163.9397
68.000000	72.772	163.5525
69.000000	72.717	163.2017
70.000000	72.668	162.9071
71.000000	72.619	162.5600
72.000000	72.558	162.2603
73.000000	72.510	162.0133
74.000000	72.466	161.6986
75.000000	72.417	161.3566
76.199997	72.352	160.9600
77.500000	72.277	160.5960
78.800003	72.209	160.2939
80.000000	72.151	159.9825
81.199997	72.089	159.6562
82.500000	72.018	159.3118
83.800003	71.947	159.0457
85.000000	71.894	158.8167
86.199997	71.843	158.5590
87.500000	71.783	158.2853
88.500000	71.732	158.0967
90.000000	71.656	157.8679
91.199997	71.593	157.6697
92.500000	71.523	157.4954
93.800003	71.458	157.2983
95.000000	71.396	157.1234
96.199997	71.338	156.9639
97.500000	71.277	156.7846
98.800003	71.216	156.6058
100.000000	71.157	156.4597
101.500000	71.083	156.3279
103.000000	71.016	156.2071
104.400002	70.949	156.0546
106.000000	70.867	155.9358
107.500000	70.796	155.8774
109.000000	70.735	155.7726
110.599998	70.663	155.6350
112.000000	70.595	155.5779
113.800003	70.515	155.5474
115.000000	70.462	155.5217
117.199997	70.363	155.4649
118.000000	70.327	155.4379
120.599998	70.215	155.4265
122.000000	70.166	155.4038
124.099998	70.080	155.4104
125.000000	70.046	155.4393
126.500000	69.992	155.4744
128.000000	69.938	155.5063
131.500000	69.817	155.6155
132.000000	69.801	155.6339
134.000000	69.735	155.6993
136.000000	69.665	155.7969
138.000000	69.600	155.9357
140.000000	69.541	156.0458
143.000000	69.455	156.2122
145.000000	69.399	156.3303
147.500000	69.328	156.4795
150.000000	69.265	156.6783
152.500000	69.210	156.9331
155.000000	69.143	157.1848
157.500000	69.074	157.4050
160.000000	69.010	157.5458
162.500000	68.948	157.7363
165.000000	68.891	158.0261
167.500000	68.825	158.3057
170.000000	68.759	158.5510
172.500000	68.705	158.7931
175.000000	68.650	159.0585
177.500000	68.594	159.3375
180.000000	68.540	159.5743
182.500000	68.491	159.8297
185.000000	68.443	160.1011
187.500000	68.395	160.3879
190.000000	68.351	160.6425
192.500000	68.310	160.9052
195.000000	68.272	161.1658
197.500000	68.232	161.4178
200.000000	68.195	161.6741
203.000000	68.162	161.9694
206.000000	68.129	162.2789
209.000000	68.099	162.5898
212.000000	68.070	162.8669
214.000000	68.053	163.0485
218.000000	68.019	163.4413
220.000000	68.005	163.6304
224.000000	67.971	163.9901
227.000000	67.950	164.2653
230.000000	67.935	164.5300
233.000000	67.919	164.7795
236.000000	67.901	165.0348
240.000000	67.883	165.3482
243.000000	67.864	165.5981
247.000000	67.842	165.9095
250.000000	67.830	166.1130
254.000000	67.819	166.4153
258.000000	67.806	166.6938
262.000000	67.798	166.9415
265.000000	67.790	167.1866
269.000000	67.779	167.4684
272.000000	67.773	167.6327
276.000000	67.766	167.8833
280.000000	67.748	168.0753
285.000000	67.746	168.3393
290.000000	67.742	168.6685
295.000000	67.741	168.9148
300.000000	67.725	169.2291
304.000000	67.712	169.3686
307.000000	67.712	169.4923
311.000000	67.713	169.6873
315.000000	67.704	169.8743
320.000000	67.703	170.0830
325.000000	67.697	170.2960
330.000000	67.685	170.4929
335.000000	67.680	170.6838
340.000000	67.678	170.8751
345.000000	67.674	171.0731
350.000000	67.665	171.2433
355.000000	67.653	171.4089
360.000000	67.642	171.5456
365.000000	67.646	171.7309
370.000000	67.640	171.8999
375.000000	67.632	172.0505
382.000000	67.621	172.2812
387.000000	67.615	172.4339
395.000000	67.605	172.6532
400.000000	67.597	172.7905
406.000000	67.586	172.9619
412.000000	67.575	173.1310
418.000000	67.568	173.3065
425.000000	67.558	173.4874
431.000000	67.546	173.6224
437.000000	67.532	173.7776
444.000000	67.519	173.9818
450.000000	67.505	174.1389
455.000000	67.495	174.2760
462.000000	67.481	174.4843
468.000000	67.466	174.6271
475.000000	67.446	174.7924
482.000000	67.427	174.9745
487.000000	67.416	175.1290
494.000000	67.400	175.3265
500.000000	67.377	175.4956
508.000000	67.348	175.7384
515.000000	67.320	175.9708
522.000000	67.293	176.2549
530.000000	67.269	176.6569
538.000000	67.253	177.0870
545.000000	67.243	177.4407
552.000000	67.237	177.7535
560.000000	67.232	178.0997
570.000000	67.225	178.5125
580.000000	67.222	178.9435
590.000000	67.214	179.3860
600.000000	67.203	179.8138
608.000000	67.198	-179.8404
615.000000	67.193	-179.5024
622.000000	67.189	-179.1411
630.000000	67.187	-178.7334
640.000000	67.189	-178.2235
650.000000	67.195	-177.6925
660.000000	67.208	-177.1259
670.000000	67.225	-176.5798
680.000000	67.250	-176.0353
690.000000	67.281	-175.4679
700.000000	67.321	-174.9400
710.000000	67.366	-174.4081
720.000000	67.418	-173.9102
730.000000	67.476	-173.4626
740.000000	67.537	-173.1077
750.000000	67.599	-172.7926
762.000000	67.673	-172.4951
775.000000	67.745	-172.2403
788.000000	67.806	-172.0576
800.000000	67.852	-171.9241
812.000000	67.883	-171.7689
825.000000	67.903	-171.5784
838.000000	67.918	-171.3238
850.000000	67.929	-171.0662
862.000000	67.938	-170.7529
875.000000	67.954	-170.3896
885.000000	67.971	-170.0848
900.000000	68.001	-169.5931
912.000000	68.029	-169.1983
925.000000	68.065	-168.7701
938.000000	68.107	-168.3395
950.000000	68.152	-167.9380
962.000000	68.200	-167.5709
975.000000	68.256	-167.1929
988.000000	68.316	-166.8292
1000.000000	68.379	-166.5159
1015.000000	68.469	-166.1340
1030.000000	68.566	-165.8153
1044.000000	68.660	-165.5590
1060.000000	68.770	-165.3104
1075.000000	68.870	-165.1283
1090.000000	68.971	-164.9604
1106.000000	69.078	-164.8323
1120.000000	69.168	-164.7488
1138.000000	69.279	-164.7023
1150.000000	69.353	-164.6833
1172.000000	69.487	-164.6731
1180.000000	69.534	-164.6873
1206.000000	69.677	-164.7505
1220.000000	69.752	-164.8126
1241.000000	69.858	-164.9229
1250.000000	69.898	-164.9706
1265.000000	69.949	-165.0521
1280.000000	69.994	-165.1291
1315.000000	70.089	-165.3411
1320.000000	70.101	-165.3702
1340.000000	70.152	-165.4863
1360.000000	70.204	-165.5966
1380.000000	70.251	-165.6978
1400.000000	70.299	-165.7949
1430.000000	70.369	-165.9559
1450.000000	70.418	-166.0507
1475.000000	70.480	-166.1526
1500.000000	70.545	-166.2659
1525.000000	70.611	-166.3803
1550.000000	70.681	-166.5097
1575.000000	70.752	-166.6304
1600.000000	70.832	-166.7475
1625.000000	70.943	-166.9139
1650.000000	71.064	-167.1038
1675.000000	71.187	-167.2931
1700.000000	71.311	-167.5092
1725.000000	71.437	-167.7631
1750.000000	71.567	-168.0411
1775.000000	71.704	-168.3705
1800.000000	71.841	-168.7449
1825.000000	71.980	-169.1578
1850.000000	72.119	-169.6019
1875.000000	72.258	-170.1154
1900.000000	72.400	-170.6796
1925.000000	72.540	-171.3069
1950.000000	72.681	-171.9921
1975.000000	72.819	-172.7395
2000.000000	72.956	-173.5443
2030.000000	73.110	-174.6126
2060.000000	73.255	-175.7636
2090.000000	73.394	-177.0012
2120.000000	73.522	-178.3314
2140.000000	73.601	-179.2598
2180.000000	73.740	178.8019
2200.000000	73.801	177.7872
2240.000000	73.901	175.6941
2270.000000	73.952	174.1074
2300.000000	73.986	172.5172
2330.000000	74.003	170.9392
2360.000000	74.004	169.3960
2400.000000	73.979	167.4382
2430.000000	73.943	166.0371
2470.000000	73.876	164.2995
2500.000000	73.815	163.1193
2540.000000	73.725	161.6837
2580.000000	73.628	160.3962
2620.000000	73.529	159.2601
2650.000000	73.453	158.4988
2690.000000	73.352	157.5812
2720.000000	73.279	156.9654
2760.000000	73.184	156.2129
2800.000000	73.095	155.5507
2850.000000	72.988	154.8461
2900.000000	72.884	154.2700
2950.000000	72.794	153.7971
3000.000000	72.718	153.4215
3040.000000	72.665	153.2029
3070.000000	72.632	153.0618
3110.000000	72.599	152.9150
3150.000000	72.575	152.8196
3200.000000	72.563	152.7596
3250.000000	72.579	152.7062
3300.000000	72.615	152.6372
3350.000000	72.673	152.5496
3400.000000	72.752	152.3806
3450.000000	72.853	152.1363
3500.000000	72.970	151.7834
3550.000000	73.106	151.3165
3600.000000	73.257	150.7138
3650.000000	73.419	149.9608
3700.000000	73.588	149.0554
3750.000000	73.765	147.9659
3820.000000	74.013	146.1372
3870.000000	74.187	144.5999
3950.000000	74.451	141.7511
4000.000000	74.598	139.7241
4060.000000	74.742	137.0861
4120.000000	74.849	134.2749
4180.000000	74.917	131.3252
4250.000000	74.943	127.8209
4310.000000	74.923	124.8221
4370.000000	74.866	121.8774
4440.000000	74.751	118.5951
4500.000000	74.614	115.9523
4550.000000	74.481	113.8820
4620.000000	74.273	111.2060
4680.000000	74.079	109.1421
4750.000000	73.836	107.0050
4820.000000	73.582	105.1774
4870.000000	73.400	104.0383
4940.000000	73.147	102.6608
5000.000000	72.934	101.6783
5080.000000	72.645	100.6351
5150.000000	72.406	99.9238
5220.000000	72.181	99.4090
5300.000000	71.943	99.0044
5380.000000	71.732	98.7938
5450.000000	71.573	98.7230
5520.000000	71.438	98.7430
5600.000000	71.311	98.8357
5700.000000	71.201	99.0056
5800.000000	71.143	99.1349
5900.000000	71.120	99.1841
6000.000000	71.138	99.0400
6080.000000	71.178	98.7457
6150.000000	71.223	98.3176
6220.000000	71.269	97.7218
6300.000000	71.332	96.7906
6400.000000	71.441	95.2901
6500.000000	71.510	93.4809
6600.000000	71.508	91.4908
6700.000000	71.432	89.5037
6800.000000	71.285	87.6926
6900.000000	71.071	86.2663
7000.000000	70.820	85.3126
7100.000000	70.561	84.8370
7200.000000	70.315	84.7957
7300.000000	70.089	85.0741
7400.000000	69.893	85.6009
7500.000000	69.739	86.3152
7620.000000	69.606	87.2551
7750.000000	69.524	88.1609
7880.000000	69.476	88.6708
8000.000000	69.397	88.8254
8120.000000	69.203	88.8425
8250.000000	68.938	88.8495
8380.000000	68.650	88.7203
8500.000000	68.323	88.5844
8620.000000	67.932	88.7273
8750.000000	67.467	89.3228
8850.000000	67.094	90.1072
9000.000000	66.521	91.8938
9120.000000	66.068	93.9238
9250.000000	65.608	96.7253
9380.000000	65.206	100.0967
9500.000000	64.905	103.6630
9620.000000	64.684	107.5528
9750.000000	64.549	111.9815
9880.000000	64.536	116.4902
10000.000000	64.641	120.5963
10150.000000	64.943	125.4821
10300.000000	65.412	129.8911
10440.000000	65.994	133.3345
10600.000000	66.804	135.8834
10750.000000	67.612	136.3370
10900.000000	68.312	134.7224
11060.000000	68.778	131.3451
11200.000000	68.887	128.0217
11380.000000	68.678	124.6843
11500.000000	68.406	123.5270
11720.000000	67.853	123.6432
11800.000000	67.677	124.2662
12060.000000	67.284	127.2382
12200.000000	67.172	128.9053
12410.000000	67.050	131.0280
12500.000000	66.989	131.8340
12650.000000	66.855	133.1445
12800.000000	66.696	134.5006
13150.000000	66.337	137.9907
13200.000000	66.292	138.5254
13400.000000	66.136	140.7056
13600.000000	66.053	142.7251
13800.000000	66.049	144.2518
14000.000000	66.101	144.8948
14300.000000	66.145	143.3510
14500.000000	65.989	140.4418
14750.000000	65.332	135.4650
15000.000000	64.027	131.6097
15250.000000	62.244	131.9706
15500.000000	60.432	138.1057
15750.000000	59.196	149.1738
16000.000000	59.075	161.7476
16250.000000	60.146	170.5431
16500.000000	61.455	176.5190
16750.000000	64.067	175.2880
17000.000000	65.011	153.7056
17250.000000	62.127	140.6844
17500.000000	59.410	153.9893
17750.000000	59.808	165.9288
18000.000000	60.498	168.5751
18250.000000	60.795	168.2386
18500.000000	60.843	166.2296
18750.000000	60.565	162.4589
19000.000000	59.802	157.7487
19250.000000	58.499	153.8043
19500.000000	56.750	152.0269
19750.000000	54.744	153.0069
