* Measurement data measured by REW V5.20.13
* Source: C:\Users\marcu\OneDrive\Desktop\audio_db\Yanyin Canon 000 Foam L.txt
* Format: Comma/Tab/Space delimited data
* Dated: May 29, 2023 8:27:36 AM
* REW Settings:
*  C-weighting compensation: Off
*  Target level: 75.0 dB
* Note: ; Measurement imported from C:\Users\marcu\OneDrive\Desktop\audio_db\Yanyin Canon 000 Foam L.txt Format: Comma/Tab/Space delimited data 54613 values loaded, 0 Hz to 20,000 Hz 
* Measurement: Yanyin Canon 000 Foam L
* Smoothing: None
* Frequency Step: 1/48 octave
* Start Frequency: 1.000 Hz
*
* Freq(Hz)	SPL(dB)	Phase(degrees)
1.000000	53.787	-162.5277
1.015000	53.713	-163.2223
1.030000	53.628	-163.9251
1.044000	53.537	-164.5876
1.060000	53.420	-165.3518
1.075000	53.296	-166.0742
1.090000	53.159	-166.8015
1.106000	52.995	-167.6233
1.120000	52.826	-168.6032
1.138000	52.571	-170.2344
1.150000	52.381	-171.5208
1.172000	51.996	-174.2118
1.180000	51.846	-175.2759
1.206000	51.324	-178.9463
1.220000	51.026	178.9990
1.241000	50.564	175.9078
1.250000	50.361	174.6045
1.265000	50.020	172.4946
1.280000	49.676	170.4992
1.315000	48.881	166.5262
1.320000	48.769	166.0596
1.340000	48.334	164.5083
1.360000	47.918	163.5362
1.380000	47.529	163.2434
1.400000	47.172	163.7300
1.430000	46.713	166.1406
1.450000	46.467	169.0141
1.475000	46.232	174.2747
1.500000	46.029	-178.0142
1.525000	45.849	-168.0536
1.550000	45.694	-156.2243
1.575000	45.567	-142.9064
1.600000	45.472	-128.4806
1.625000	45.411	-113.3272
1.650000	45.388	-97.8268
1.675000	45.404	-82.3597
1.700000	45.464	-67.3064
1.725000	45.571	-53.0474
1.750000	45.726	-39.9631
1.775000	45.934	-28.4339
1.800000	46.196	-18.8404
1.825000	46.517	-11.5628
1.850000	46.915	-6.6812
1.875000	47.422	-3.5639
1.900000	48.025	-1.9898
1.925000	48.707	-1.7629
1.950000	49.454	-2.6875
1.975000	50.251	-4.5675
2.000000	51.081	-7.2071
2.030000	52.100	-11.1014
2.060000	53.119	-15.4687
2.090000	54.111	-19.9706
2.120000	55.049	-24.2685
2.140000	55.632	-26.8533
2.180000	56.660	-30.8981
2.200000	57.089	-32.1633
2.240000	57.837	-34.1936
2.270000	58.330	-35.6589
2.300000	58.773	-37.0798
2.330000	59.171	-38.4610
2.360000	59.531	-39.8068
2.400000	59.964	-41.5540
2.430000	60.260	-42.8347
2.470000	60.630	-44.5113
2.500000	60.897	-45.7512
2.540000	61.251	-47.3895
2.580000	61.611	-49.0184
2.620000	61.946	-50.6254
2.650000	62.176	-51.8122
2.690000	62.458	-53.3675
2.720000	62.653	-54.5120
2.760000	62.894	-56.0064
2.800000	63.115	-57.4617
2.850000	63.371	-59.2215
2.900000	63.611	-60.9097
2.950000	63.838	-62.5234
3.000000	64.039	-64.0809
3.040000	64.180	-65.2854
3.070000	64.276	-66.1618
3.110000	64.392	-67.2913
3.150000	64.497	-68.3721
3.200000	64.616	-69.6484
3.250000	64.725	-70.8342
3.300000	64.828	-71.9214
3.350000	64.919	-72.9139
3.400000	64.991	-73.8188
3.450000	65.049	-74.6371
3.500000	65.099	-75.3696
3.550000	65.143	-76.0175
3.600000	65.188	-76.5817
3.650000	65.238	-77.0630
3.700000	65.291	-77.4488
3.750000	65.338	-77.7173
3.820000	65.399	-77.9331
3.870000	65.444	-78.0010
3.950000	65.528	-78.0178
4.000000	65.592	-78.0034
4.060000	65.685	-77.9731
4.120000	65.792	-77.8475
4.180000	65.909	-77.6519
4.250000	66.057	-77.3935
4.310000	66.194	-77.1959
4.370000	66.337	-77.0663
4.440000	66.514	-77.0254
4.500000	66.680	-77.0279
4.550000	66.826	-77.0587
4.620000	67.035	-77.1568
4.680000	67.214	-77.3026
4.750000	67.415	-77.5584
4.820000	67.609	-77.9235
4.870000	67.749	-78.2502
4.940000	67.942	-78.7802
5.000000	68.103	-79.2842
5.080000	68.305	-79.9985
5.150000	68.467	-80.6408
5.220000	68.616	-81.3411
5.300000	68.774	-82.2010
5.380000	68.919	-83.0813
5.450000	69.036	-83.8330
5.520000	69.143	-84.5418
5.600000	69.250	-85.3418
5.700000	69.365	-86.3179
5.800000	69.468	-87.2254
5.900000	69.567	-88.0228
6.000000	69.654	-88.7179
6.080000	69.719	-89.2138
6.150000	69.776	-89.6109
6.220000	69.837	-89.9792
6.300000	69.911	-90.3513
6.400000	70.006	-90.7378
6.500000	70.106	-91.0858
6.600000	70.214	-91.4475
6.700000	70.334	-91.8097
6.800000	70.461	-92.1650
6.900000	70.593	-92.5498
7.000000	70.725	-92.9968
7.100000	70.861	-93.4956
7.200000	70.999	-94.0360
7.300000	71.132	-94.6130
7.400000	71.258	-95.2314
7.500000	71.380	-95.8982
7.620000	71.520	-96.7235
7.750000	71.657	-97.6055
7.880000	71.781	-98.4987
8.000000	71.887	-99.3027
8.120000	71.987	-100.0525
8.250000	72.085	-100.8177
8.380000	72.180	-101.5343
8.500000	72.269	-102.1452
8.620000	72.357	-102.7051
8.750000	72.454	-103.2820
8.850000	72.532	-103.7179
9.000000	72.652	-104.3414
9.120000	72.750	-104.8395
9.250000	72.858	-105.3989
9.380000	72.967	-105.9683
9.500000	73.066	-106.5055
9.620000	73.163	-107.0596
9.750000	73.267	-107.6757
9.880000	73.358	-108.2912
10.000000	73.425	-108.8558
10.150000	73.492	-109.5583
10.300000	73.550	-110.2338
10.440000	73.593	-110.8389
10.600000	73.636	-111.5025
10.750000	73.678	-112.0928
10.900000	73.718	-112.6572
11.060000	73.761	-113.2468
11.200000	73.799	-113.7491
11.380000	73.847	-114.3924
11.500000	73.879	-114.8238
11.720000	73.933	-115.6153
11.800000	73.951	-115.9045
12.060000	74.005	-116.8436
12.200000	74.029	-117.3403
12.410000	74.064	-118.0732
12.500000	74.083	-118.3795
12.650000	74.123	-118.8797
12.800000	74.164	-119.3706
13.150000	74.259	-120.4858
13.200000	74.272	-120.6443
13.400000	74.325	-121.2767
13.600000	74.374	-121.9115
13.800000	74.421	-122.5518
14.000000	74.463	-123.1910
14.300000	74.520	-124.1429
14.500000	74.555	-124.7638
14.750000	74.595	-125.5239
15.000000	74.635	-126.2674
15.250000	74.674	-127.0043
15.500000	74.712	-127.7430
15.750000	74.748	-128.4861
16.000000	74.784	-129.2331
16.250000	74.822	-129.9736
16.500000	74.860	-130.7022
16.750000	74.896	-131.4111
17.000000	74.932	-132.1020
17.250000	74.966	-132.7787
17.500000	75.001	-133.4471
17.750000	75.035	-134.1122
18.000000	75.068	-134.7727
18.250000	75.098	-135.4264
18.500000	75.126	-136.0660
18.750000	75.153	-136.6894
19.000000	75.178	-137.2944
19.250000	75.202	-137.8846
19.500000	75.226	-138.4642
19.750000	75.249	-139.0363
20.000000	75.271	-139.6033
20.299999	75.296	-140.2744
20.600000	75.319	-140.9322
20.900000	75.339	-141.5741
21.200001	75.358	-142.2012
21.400000	75.369	-142.6141
21.799999	75.391	-143.4324
22.000000	75.400	-143.8393
22.400000	75.416	-144.6468
22.700001	75.427	-145.2429
23.000000	75.435	-145.8290
23.299999	75.443	-146.4077
23.600000	75.451	-146.9827
24.000000	75.460	-147.7484
24.299999	75.466	-148.3211
24.700001	75.472	-149.0768
25.000000	75.476	-149.6337
25.400000	75.481	-150.3621
25.799999	75.486	-151.0773
26.200001	75.491	-151.7812
26.500000	75.493	-152.3000
26.900000	75.497	-152.9764
27.200001	75.500	-153.4724
27.600000	75.503	-154.1217
28.000000	75.505	-154.7614
28.500000	75.507	-155.5474
29.000000	75.506	-156.3115
29.500000	75.503	-157.0529
30.000000	75.499	-157.7791
30.400000	75.496	-158.3522
30.700001	75.491	-158.7764
31.100000	75.485	-159.3335
31.500000	75.479	-159.8826
32.000000	75.469	-160.5633
32.500000	75.459	-161.2398
33.000000	75.448	-161.9063
33.500000	75.436	-162.5576
34.000000	75.423	-163.1949
34.500000	75.412	-163.8211
35.000000	75.400	-164.4372
35.500000	75.389	-165.0433
36.000000	75.377	-165.6394
36.500000	75.364	-166.2243
37.000000	75.352	-166.7953
37.500000	75.338	-167.3528
38.200001	75.318	-168.1158
38.700001	75.303	-168.6493
39.500000	75.279	-169.4833
40.000000	75.262	-169.9952
40.599998	75.244	-170.5989
41.200001	75.226	-171.1880
41.799999	75.209	-171.7678
42.500000	75.188	-172.4408
43.099998	75.169	-173.0068
43.700001	75.150	-173.5542
44.400002	75.129	-174.1776
45.000000	75.111	-174.7083
45.500000	75.095	-175.1465
46.200001	75.072	-175.7462
46.799999	75.052	-176.2443
47.500000	75.030	-176.8145
48.200001	75.007	-177.3833
48.700001	74.989	-177.7860
49.400002	74.963	-178.3322
50.000000	74.943	-178.7839
50.799999	74.916	-179.3780
51.500000	74.893	-179.8934
52.200001	74.868	179.6045
53.000000	74.841	179.0469
53.799999	74.812	178.4978
54.500000	74.787	178.0226
55.200001	74.762	177.5561
56.000000	74.731	177.0402
57.000000	74.695	176.4201
58.000000	74.660	175.7993
59.000000	74.622	175.1911
60.000000	74.585	174.6154
60.799999	74.556	174.1628
61.500000	74.529	173.7767
62.200001	74.503	173.4012
63.000000	74.473	172.9750
64.000000	74.433	172.4468
65.000000	74.393	171.9336
66.000000	74.352	171.4323
67.000000	74.312	170.9421
68.000000	74.271	170.4634
69.000000	74.231	169.9922
70.000000	74.189	169.5399
71.000000	74.149	169.0972
72.000000	74.107	168.6607
73.000000	74.065	168.2435
74.000000	74.025	167.8370
75.000000	73.984	167.4319
76.199997	73.934	166.9641
77.500000	73.881	166.4764
78.800003	73.827	165.9940
80.000000	73.777	165.5670
81.199997	73.729	165.1564
82.500000	73.678	164.7184
83.800003	73.626	164.2935
85.000000	73.577	163.9160
86.199997	73.529	163.5573
87.500000	73.479	163.1657
88.500000	73.439	162.8642
90.000000	73.379	162.4299
91.199997	73.330	162.1011
92.500000	73.279	161.7604
93.800003	73.229	161.4366
95.000000	73.183	161.1312
96.199997	73.134	160.8443
97.500000	73.085	160.5426
98.800003	73.034	160.2452
100.000000	72.990	159.9725
101.500000	72.931	159.6375
103.000000	72.874	159.3271
104.400002	72.821	159.0414
106.000000	72.760	158.7297
107.500000	72.704	158.4500
109.000000	72.648	158.1750
110.599998	72.588	157.8972
112.000000	72.536	157.6632
113.800003	72.470	157.3679
115.000000	72.426	157.1860
117.199997	72.348	156.8703
118.000000	72.319	156.7593
120.599998	72.230	156.4005
122.000000	72.178	156.2170
124.099998	72.105	155.9572
125.000000	72.075	155.8477
126.500000	72.027	155.6682
128.000000	71.981	155.4979
131.500000	71.877	155.1298
132.000000	71.862	155.0810
134.000000	71.803	154.8854
136.000000	71.744	154.7080
138.000000	71.685	154.5408
140.000000	71.627	154.3839
143.000000	71.541	154.1578
145.000000	71.485	154.0223
147.500000	71.415	153.8611
150.000000	71.347	153.7261
152.500000	71.280	153.5890
155.000000	71.213	153.4635
157.500000	71.147	153.3441
160.000000	71.080	153.2428
162.500000	71.005	153.1487
165.000000	70.928	153.0743
167.500000	70.851	153.0104
170.000000	70.777	152.9462
172.500000	70.702	152.8892
175.000000	70.629	152.8474
177.500000	70.558	152.8178
180.000000	70.488	152.7794
182.500000	70.416	152.7509
185.000000	70.349	152.7378
187.500000	70.282	152.7372
190.000000	70.215	152.7438
192.500000	70.146	152.7560
195.000000	70.082	152.7722
197.500000	70.018	152.7879
200.000000	69.958	152.8134
203.000000	69.888	152.8516
206.000000	69.822	152.8932
209.000000	69.757	152.9354
212.000000	69.695	152.9862
214.000000	69.653	153.0199
218.000000	69.572	153.1053
220.000000	69.531	153.1470
224.000000	69.449	153.2363
227.000000	69.391	153.3095
230.000000	69.333	153.3917
233.000000	69.275	153.4718
236.000000	69.218	153.5457
240.000000	69.142	153.6703
243.000000	69.086	153.7728
247.000000	69.012	153.9160
250.000000	68.958	154.0257
254.000000	68.888	154.1930
258.000000	68.820	154.3719
262.000000	68.756	154.5480
265.000000	68.708	154.6837
269.000000	68.645	154.8539
272.000000	68.597	154.9967
276.000000	68.539	155.1935
280.000000	68.479	155.3788
285.000000	68.406	155.6496
290.000000	68.335	155.9282
295.000000	68.265	156.2149
300.000000	68.199	156.4913
304.000000	68.146	156.7150
307.000000	68.109	156.8975
311.000000	68.060	157.1317
315.000000	68.012	157.3639
320.000000	67.956	157.6591
325.000000	67.898	157.9503
330.000000	67.846	158.2493
335.000000	67.791	158.5434
340.000000	67.737	158.8308
345.000000	67.685	159.1349
350.000000	67.633	159.4359
355.000000	67.583	159.7464
360.000000	67.534	160.0602
365.000000	67.486	160.3757
370.000000	67.438	160.6994
375.000000	67.392	161.0237
382.000000	67.332	161.4855
387.000000	67.289	161.8201
395.000000	67.225	162.3586
400.000000	67.186	162.6960
406.000000	67.142	163.0870
412.000000	67.099	163.4928
418.000000	67.058	163.8967
425.000000	67.013	164.3646
431.000000	66.975	164.7868
437.000000	66.938	165.1874
444.000000	66.897	165.6632
450.000000	66.863	166.0766
455.000000	66.838	166.4181
462.000000	66.804	166.9060
468.000000	66.776	167.3159
475.000000	66.744	167.7783
482.000000	66.715	168.2443
487.000000	66.693	168.5769
494.000000	66.666	169.0422
500.000000	66.644	169.4387
508.000000	66.618	169.9658
515.000000	66.597	170.4229
522.000000	66.574	170.8712
530.000000	66.552	171.3827
538.000000	66.531	171.8783
545.000000	66.514	172.3193
552.000000	66.496	172.7552
560.000000	66.474	173.2642
570.000000	66.449	173.9017
580.000000	66.425	174.5382
590.000000	66.402	175.1819
600.000000	66.379	175.8342
608.000000	66.364	176.3575
615.000000	66.350	176.8232
622.000000	66.338	177.2979
630.000000	66.325	177.8350
640.000000	66.312	178.5072
650.000000	66.304	179.1943
660.000000	66.297	179.8920
670.000000	66.292	-179.4210
680.000000	66.289	-178.7310
690.000000	66.290	-178.0315
700.000000	66.292	-177.3382
710.000000	66.297	-176.6473
720.000000	66.306	-175.9603
730.000000	66.315	-175.2651
740.000000	66.326	-174.5567
750.000000	66.339	-173.8595
762.000000	66.360	-173.0001
775.000000	66.386	-172.0653
788.000000	66.417	-171.1461
800.000000	66.449	-170.2930
812.000000	66.478	-169.4410
825.000000	66.513	-168.5153
838.000000	66.554	-167.6010
850.000000	66.596	-166.7682
862.000000	66.642	-165.9458
875.000000	66.699	-165.0614
885.000000	66.744	-164.3984
900.000000	66.820	-163.4183
912.000000	66.886	-162.6520
925.000000	66.963	-161.8442
938.000000	67.042	-161.0663
950.000000	67.120	-160.3733
962.000000	67.203	-159.7070
975.000000	67.295	-159.0154
988.000000	67.392	-158.3674
1000.000000	67.487	-157.7971
1015.000000	67.619	-157.1294
1030.000000	67.755	-156.5112
1044.000000	67.883	-155.9860
1060.000000	68.032	-155.4456
1075.000000	68.170	-154.9885
1090.000000	68.308	-154.5721
1106.000000	68.453	-154.1907
1120.000000	68.579	-153.8999
1138.000000	68.738	-153.5797
1150.000000	68.842	-153.3932
1172.000000	69.025	-153.1075
1180.000000	69.091	-153.0200
1206.000000	69.295	-152.7792
1220.000000	69.398	-152.6840
1241.000000	69.549	-152.5525
1250.000000	69.608	-152.5037
1265.000000	69.690	-152.4312
1280.000000	69.762	-152.3562
1315.000000	69.920	-152.2039
1320.000000	69.941	-152.1817
1340.000000	70.027	-152.0894
1360.000000	70.112	-151.9922
1380.000000	70.195	-151.9008
1400.000000	70.279	-151.8027
1430.000000	70.405	-151.6453
1450.000000	70.490	-151.5463
1475.000000	70.601	-151.4385
1500.000000	70.713	-151.3446
1525.000000	70.827	-151.2690
1550.000000	70.945	-151.2373
1575.000000	71.065	-151.2308
1600.000000	71.195	-151.2647
1625.000000	71.352	-151.3477
1650.000000	71.515	-151.4831
1675.000000	71.678	-151.6738
1700.000000	71.839	-151.9303
1725.000000	71.999	-152.2485
1750.000000	72.156	-152.6165
1775.000000	72.309	-153.0486
1800.000000	72.458	-153.5387
1825.000000	72.603	-154.0899
1850.000000	72.740	-154.6916
1875.000000	72.872	-155.3381
1900.000000	72.997	-156.0422
1925.000000	73.114	-156.7997
1950.000000	73.222	-157.5994
1975.000000	73.322	-158.4373
2000.000000	73.412	-159.3054
2030.000000	73.502	-160.3897
2060.000000	73.577	-161.5009
2090.000000	73.639	-162.6264
2120.000000	73.687	-163.7654
2140.000000	73.711	-164.5229
2180.000000	73.741	-166.0176
2200.000000	73.747	-166.7496
2240.000000	73.746	-168.1818
2270.000000	73.731	-169.2138
2300.000000	73.708	-170.1904
2330.000000	73.675	-171.1173
2360.000000	73.633	-171.9863
2400.000000	73.570	-173.0578
2430.000000	73.516	-173.7879
2470.000000	73.438	-174.6567
2500.000000	73.376	-175.2361
2540.000000	73.290	-175.9054
2580.000000	73.203	-176.4603
2620.000000	73.117	-176.9023
2650.000000	73.053	-177.1684
2690.000000	72.973	-177.4418
2720.000000	72.916	-177.5819
2760.000000	72.844	-177.6934
2800.000000	72.781	-177.7323
2850.000000	72.713	-177.6722
2900.000000	72.659	-177.5227
2950.000000	72.622	-177.2978
3000.000000	72.603	-177.0179
3040.000000	72.599	-176.7674
3070.000000	72.604	-176.5665
3110.000000	72.619	-176.2870
3150.000000	72.646	-175.9998
3200.000000	72.697	-175.6495
3250.000000	72.768	-175.3307
3300.000000	72.857	-175.0626
3350.000000	72.964	-174.8693
3400.000000	73.086	-174.7672
3450.000000	73.225	-174.7736
3500.000000	73.377	-174.9117
3550.000000	73.541	-175.2082
3600.000000	73.713	-175.6853
3650.000000	73.891	-176.3779
3700.000000	74.068	-177.2965
3750.000000	74.237	-178.4512
3820.000000	74.448	179.5187
3870.000000	74.568	177.8080
3950.000000	74.685	174.7477
4000.000000	74.707	172.7573
4060.000000	74.682	170.4144
4120.000000	74.617	168.2186
4180.000000	74.526	166.1836
4250.000000	74.404	163.9295
4310.000000	74.285	162.0065
4370.000000	74.144	160.0568
4440.000000	73.939	157.7751
4500.000000	73.722	155.8942
4550.000000	73.510	154.4502
4620.000000	73.171	152.7249
4680.000000	72.852	151.5700
4750.000000	72.460	150.6502
4820.000000	72.056	150.1837
4870.000000	71.766	150.1298
4940.000000	71.371	150.4255
5000.000000	71.045	150.9983
5080.000000	70.630	152.1488
5150.000000	70.299	153.4487
5220.000000	70.006	155.0070
5300.000000	69.724	157.0277
5380.000000	69.505	159.2493
5450.000000	69.367	161.2939
5520.000000	69.282	163.3909
5600.000000	69.255	165.7690
5700.000000	69.327	168.5554
5800.000000	69.520	170.9360
5900.000000	69.828	172.5809
6000.000000	70.221	173.0491
6080.000000	70.546	172.2956
6150.000000	70.788	170.7131
6220.000000	70.938	168.3288
6300.000000	70.955	164.9458
6400.000000	70.725	160.6617
6500.000000	70.208	157.6018
6600.000000	69.529	156.5446
6700.000000	68.832	157.5460
6800.000000	68.228	160.3061
6900.000000	67.829	164.3400
7000.000000	67.657	168.6204
7100.000000	67.653	172.7849
7200.000000	67.801	176.6296
7300.000000	68.073	179.9182
7400.000000	68.437	-177.5125
7500.000000	68.854	-175.8041
7620.000000	69.358	-174.7657
7750.000000	69.909	-174.5567
7880.000000	70.464	-175.8206
8000.000000	70.811	-178.4576
8120.000000	70.857	178.2996
8250.000000	70.648	175.1343
8380.000000	70.296	173.0082
8500.000000	69.947	172.0671
8620.000000	69.648	171.8032
8750.000000	69.410	171.8259
8850.000000	69.284	171.7585
9000.000000	69.137	171.2213
9120.000000	69.002	170.4547
9250.000000	68.820	169.6042
9380.000000	68.638	168.9573
9500.000000	68.514	168.4490
9620.000000	68.453	167.6736
9750.000000	68.435	166.0593
9880.000000	68.387	163.2446
10000.000000	68.219	159.6036
10150.000000	67.735	154.4532
10300.000000	66.871	150.2303
10440.000000	65.823	148.3638
10600.000000	64.550	149.0870
10750.000000	63.456	152.0578
10900.000000	62.520	156.6313
11060.000000	61.768	163.0795
11200.000000	61.403	169.3842
11380.000000	61.318	177.1106
11500.000000	61.441	-178.3846
11720.000000	61.913	-171.8106
11800.000000	62.136	-170.0701
12060.000000	62.874	-166.9400
12200.000000	63.195	-166.6355
12410.000000	63.483	-167.1781
12500.000000	63.526	-167.5243
12650.000000	63.507	-167.9875
12800.000000	63.425	-168.1680
13150.000000	63.271	-167.6415
13200.000000	63.270	-167.5686
13400.000000	63.332	-167.6284
13600.000000	63.489	-169.0338
13800.000000	63.532	-172.6654
14000.000000	63.359	-176.8381
14300.000000	62.620	173.1375
14500.000000	61.323	168.0448
14750.000000	59.388	166.0416
15000.000000	57.504	168.2697
15250.000000	55.873	173.4107
15500.000000	54.595	-179.4005
15750.000000	53.757	-171.0416
16000.000000	53.472	-162.7718
16250.000000	53.764	-156.0981
16500.000000	54.292	-150.6024
16750.000000	55.137	-147.0606
17000.000000	55.797	-147.7185
17250.000000	55.854	-148.4357
17500.000000	55.781	-146.3192
17750.000000	55.942	-142.7170
18000.000000	56.373	-139.5071
18250.000000	56.971	-137.7800
18500.000000	57.560	-138.1463
18750.000000	57.949	-140.5512
19000.000000	57.989	-143.9814
19250.000000	57.698	-147.0102
19500.000000	57.242	-149.0096
19750.000000	56.761	-150.3877
