* Measurement data measured by REW V5.20.13
* Source: C:\Users\marcu\OneDrive\Desktop\audio_db\Yanyin X HBB Mahina Foam L.txt
* Format: Comma/Tab/Space delimited data
* Dated: May 29, 2023 8:27:36 AM
* REW Settings:
*  C-weighting compensation: Off
*  Target level: 75.0 dB
* Note: ; Measurement imported from C:\Users\marcu\OneDrive\Desktop\audio_db\Yanyin X HBB Mahina Foam L.txt Format: Comma/Tab/Space delimited data 54613 values loaded, 0 Hz to 20,000 Hz 
* Measurement: Yanyin X HBB Mahina Foam L
* Smoothing: None
* Frequency Step: 1/48 octave
* Start Frequency: 1.000 Hz
*
* Freq(Hz)	SPL(dB)	Phase(degrees)
1.000000	56.013	152.6132
1.015000	56.032	152.1245
1.030000	56.051	151.6359
1.044000	56.069	151.1802
1.060000	56.088	150.6600
1.075000	56.106	150.1731
1.090000	56.123	149.6873
1.106000	56.141	149.1700
1.120000	56.157	148.7150
1.138000	56.176	148.1265
1.150000	56.189	147.7321
1.172000	56.212	147.0057
1.180000	56.220	146.7406
1.206000	56.247	145.8763
1.220000	56.261	145.4098
1.241000	56.281	144.7091
1.250000	56.290	144.4088
1.265000	56.304	143.9083
1.280000	56.317	143.4084
1.315000	56.348	142.2457
1.320000	56.352	142.0803
1.340000	56.369	141.4205
1.360000	56.385	140.7648
1.380000	56.401	140.1138
1.400000	56.416	139.4685
1.430000	56.437	138.5129
1.450000	56.450	137.8853
1.475000	56.465	137.1115
1.500000	56.479	136.3401
1.525000	56.492	135.5699
1.550000	56.503	134.8024
1.575000	56.514	134.0390
1.600000	56.523	133.2814
1.625000	56.531	132.5309
1.650000	56.539	131.7891
1.675000	56.546	131.0575
1.700000	56.552	130.3375
1.725000	56.558	129.6308
1.750000	56.564	128.9387
1.775000	56.570	128.2629
1.800000	56.575	127.6047
1.825000	56.581	126.9657
1.850000	56.586	126.3445
1.875000	56.589	125.7352
1.900000	56.592	125.1381
1.925000	56.593	124.5535
1.950000	56.594	123.9821
1.975000	56.595	123.4244
2.000000	56.595	122.8809
2.030000	56.596	122.2480
2.060000	56.597	121.6373
2.090000	56.599	121.0494
2.120000	56.603	120.4854
2.140000	56.606	120.1231
2.180000	56.617	119.4324
2.200000	56.624	119.1046
2.240000	56.639	118.4899
2.270000	56.651	118.0638
2.300000	56.663	117.6650
2.330000	56.676	117.2912
2.360000	56.691	116.9398
2.400000	56.713	116.5023
2.430000	56.733	116.1943
2.470000	56.764	115.8060
2.500000	56.791	115.5283
2.540000	56.834	115.1718
2.580000	56.884	114.8296
2.620000	56.940	114.5289
2.650000	56.986	114.3300
2.690000	57.053	114.0929
2.720000	57.106	113.9309
2.760000	57.182	113.7283
2.800000	57.262	113.5323
2.850000	57.370	113.2821
2.900000	57.485	113.0088
2.950000	57.607	112.6992
3.000000	57.739	112.3877
3.040000	57.853	112.1398
3.070000	57.941	111.9517
3.110000	58.063	111.6949
3.150000	58.188	111.4272
3.200000	58.346	111.0710
3.250000	58.505	110.6830
3.300000	58.662	110.2550
3.350000	58.821	109.7867
3.400000	58.984	109.2848
3.450000	59.150	108.7537
3.500000	59.316	108.1981
3.550000	59.481	107.6227
3.600000	59.643	107.0319
3.650000	59.800	106.4305
3.700000	59.952	105.8141
3.750000	60.101	105.1678
3.820000	60.306	104.2278
3.870000	60.449	103.5430
3.950000	60.669	102.4481
4.000000	60.801	101.7778
4.060000	60.952	100.9947
4.120000	61.095	100.2081
4.180000	61.233	99.4230
4.250000	61.386	98.5236
4.310000	61.512	97.7794
4.370000	61.634	97.0714
4.440000	61.771	96.2976
4.500000	61.883	95.6651
4.550000	61.972	95.1600
4.620000	62.092	94.4886
4.680000	62.194	93.9484
4.750000	62.313	93.3622
4.820000	62.431	92.8296
4.870000	62.513	92.4834
4.940000	62.628	92.0383
5.000000	62.725	91.6864
5.080000	62.857	91.2473
5.150000	62.977	90.8823
5.220000	63.098	90.5544
5.300000	63.239	90.2187
5.380000	63.382	89.9042
5.450000	63.509	89.6293
5.520000	63.638	89.3424
5.600000	63.788	89.0196
5.700000	63.979	88.6204
5.800000	64.170	88.2071
5.900000	64.356	87.7615
6.000000	64.542	87.2864
6.080000	64.689	86.8915
6.150000	64.815	86.5387
6.220000	64.936	86.1817
6.300000	65.071	85.7640
6.400000	65.234	85.2243
6.500000	65.390	84.6823
6.600000	65.539	84.1566
6.700000	65.680	83.6432
6.800000	65.813	83.1390
6.900000	65.941	82.6552
7.000000	66.064	82.2019
7.100000	66.182	81.7766
7.200000	66.296	81.3752
7.300000	66.408	80.9945
7.400000	66.519	80.6360
7.500000	66.628	80.3031
7.620000	66.757	79.9217
7.750000	66.896	79.5136
7.880000	67.034	79.1205
8.000000	67.160	78.7589
8.120000	67.284	78.3853
8.250000	67.417	77.9727
8.380000	67.547	77.5515
8.500000	67.663	77.1522
8.620000	67.775	76.7425
8.750000	67.893	76.2946
8.850000	67.980	75.9508
9.000000	68.105	75.4319
9.120000	68.202	75.0193
9.250000	68.304	74.5796
9.380000	68.401	74.1452
9.500000	68.489	73.7476
9.620000	68.578	73.3534
9.750000	68.672	72.9306
9.880000	68.757	72.5066
10.000000	68.822	72.1127
10.150000	68.890	71.6183
10.300000	68.951	71.1185
10.440000	69.001	70.6458
10.600000	69.053	70.1030
10.750000	69.101	69.5933
10.900000	69.147	69.0834
11.060000	69.195	68.5464
11.200000	69.234	68.0817
11.380000	69.285	67.4923
11.500000	69.318	67.1057
11.720000	69.379	66.4041
11.800000	69.402	66.1499
12.060000	69.475	65.3264
12.200000	69.513	64.8792
12.410000	69.572	64.2045
12.500000	69.603	63.9141
12.650000	69.663	63.4273
12.800000	69.726	62.9421
13.150000	69.866	61.8257
13.200000	69.885	61.6696
13.400000	69.962	61.0546
13.600000	70.038	60.4542
13.800000	70.112	59.8698
14.000000	70.186	59.2940
14.300000	70.294	58.4426
14.500000	70.365	57.8765
14.750000	70.450	57.1728
15.000000	70.529	56.4760
15.250000	70.604	55.7968
15.500000	70.674	55.1426
15.750000	70.740	54.5160
16.000000	70.806	53.9169
16.250000	70.876	53.3341
16.500000	70.949	52.7601
16.750000	71.020	52.1839
17.000000	71.088	51.5998
17.250000	71.153	51.0083
17.500000	71.212	50.4111
17.750000	71.268	49.8166
18.000000	71.319	49.2293
18.250000	71.366	48.6539
18.500000	71.410	48.0923
18.750000	71.454	47.5419
19.000000	71.497	47.0002
19.250000	71.539	46.4602
19.500000	71.581	45.9170
19.750000	71.624	45.3672
20.000000	71.665	44.8082
20.299999	71.711	44.1308
20.600000	71.755	43.4554
20.900000	71.795	42.7949
21.200001	71.832	42.1623
21.400000	71.857	41.7583
21.799999	71.909	40.9822
22.000000	71.938	40.6011
22.400000	71.997	39.8278
22.700001	72.041	39.2252
23.000000	72.081	38.6053
23.299999	72.115	37.9867
23.600000	72.142	37.3911
24.000000	72.174	36.6598
24.299999	72.197	36.1612
24.700001	72.233	35.5356
25.000000	72.265	35.0639
25.400000	72.308	34.3958
25.799999	72.346	33.6744
26.200001	72.373	32.9293
26.500000	72.386	32.3825
26.900000	72.395	31.6949
27.200001	72.401	31.2140
27.600000	72.409	30.6060
28.000000	72.421	30.0101
28.500000	72.438	29.2541
29.000000	72.452	28.4874
29.500000	72.465	27.7282
30.000000	72.477	26.9827
30.400000	72.488	26.3887
30.700001	72.496	25.9418
31.100000	72.504	25.3474
31.500000	72.511	24.7634
32.000000	72.517	24.0600
32.500000	72.521	23.3867
33.000000	72.526	22.7329
33.500000	72.530	22.0929
34.000000	72.531	21.4694
34.500000	72.531	20.8631
35.000000	72.531	20.2684
35.500000	72.528	19.6789
36.000000	72.524	19.0946
36.500000	72.517	18.5179
37.000000	72.508	17.9491
37.500000	72.498	17.3905
38.200001	72.480	16.6391
38.700001	72.470	16.1263
39.500000	72.460	15.2957
40.000000	72.453	14.7439
40.599998	72.439	14.0735
41.200001	72.416	13.4565
41.799999	72.397	12.9114
42.500000	72.382	12.3038
43.099998	72.372	11.7596
43.700001	72.359	11.2107
44.400002	72.341	10.5955
45.000000	72.324	10.0843
45.500000	72.310	9.6645
46.200001	72.288	9.0970
46.799999	72.268	8.6318
47.500000	72.247	8.0987
48.200001	72.224	7.5738
48.700001	72.208	7.2049
49.400002	72.185	6.6886
50.000000	72.165	6.2466
50.799999	72.137	5.6735
51.500000	72.113	5.1852
52.200001	72.087	4.7084
53.000000	72.057	4.1956
53.799999	72.032	3.6986
54.500000	72.007	3.2600
55.200001	71.981	2.8449
56.000000	71.952	2.4026
57.000000	71.916	1.8466
58.000000	71.878	1.3147
59.000000	71.843	0.7753
60.000000	71.802	0.2148
60.799999	71.766	-0.1986
61.500000	71.736	-0.5418
62.200001	71.707	-0.8750
63.000000	71.677	-1.2418
64.000000	71.638	-1.6949
65.000000	71.598	-2.1334
66.000000	71.558	-2.5380
67.000000	71.518	-2.9343
68.000000	71.477	-3.3302
69.000000	71.434	-3.7128
70.000000	71.392	-4.0809
71.000000	71.349	-4.4274
72.000000	71.310	-4.7627
73.000000	71.271	-5.1023
74.000000	71.231	-5.4248
75.000000	71.190	-5.7297
76.199997	71.140	-6.0737
77.500000	71.091	-6.4198
78.800003	71.041	-6.8029
80.000000	70.993	-7.1276
81.199997	70.948	-7.4407
82.500000	70.900	-7.7622
83.800003	70.855	-8.0753
85.000000	70.809	-8.3680
86.199997	70.759	-8.6077
87.500000	70.714	-8.8264
88.500000	70.679	-9.0373
90.000000	70.621	-9.3077
91.199997	70.581	-9.5148
92.500000	70.538	-9.7390
93.800003	70.497	-9.9792
95.000000	70.453	-10.1853
96.199997	70.410	-10.3465
97.500000	70.364	-10.5056
98.800003	70.322	-10.6489
100.000000	70.287	-10.8179
101.500000	70.237	-11.0279
103.000000	70.191	-11.2183
104.400002	70.147	-11.3836
106.000000	70.098	-11.5620
107.500000	70.050	-11.6945
109.000000	70.006	-11.8196
110.599998	69.961	-11.9675
112.000000	69.920	-12.0984
113.800003	69.866	-12.2306
115.000000	69.831	-12.3090
117.199997	69.766	-12.4300
118.000000	69.743	-12.4674
120.599998	69.675	-12.6158
122.000000	69.642	-12.7113
124.099998	69.587	-12.8162
125.000000	69.565	-12.8487
126.500000	69.532	-12.8982
128.000000	69.499	-12.9515
131.500000	69.427	-13.0883
132.000000	69.419	-13.1093
134.000000	69.382	-13.1712
136.000000	69.345	-13.2022
138.000000	69.304	-13.2263
140.000000	69.263	-13.2424
143.000000	69.210	-13.2836
145.000000	69.179	-13.3041
147.500000	69.137	-13.2979
150.000000	69.094	-13.2819
152.500000	69.051	-13.2734
155.000000	69.014	-13.2691
157.500000	68.979	-13.2384
160.000000	68.941	-13.2046
162.500000	68.895	-13.1760
165.000000	68.847	-13.1536
167.500000	68.802	-13.1063
170.000000	68.758	-13.0571
172.500000	68.712	-13.0004
175.000000	68.666	-12.9538
177.500000	68.624	-12.9130
180.000000	68.584	-12.8823
182.500000	68.544	-12.8345
185.000000	68.504	-12.7650
187.500000	68.464	-12.6933
190.000000	68.426	-12.6359
192.500000	68.388	-12.5770
195.000000	68.350	-12.5017
197.500000	68.313	-12.4146
200.000000	68.279	-12.3252
203.000000	68.242	-12.2132
206.000000	68.209	-12.1111
209.000000	68.176	-12.0070
212.000000	68.145	-11.8975
214.000000	68.125	-11.8323
218.000000	68.084	-11.6842
220.000000	68.065	-11.5997
224.000000	68.027	-11.4315
227.000000	68.000	-11.3239
230.000000	67.976	-11.2094
233.000000	67.951	-11.0934
236.000000	67.924	-10.9816
240.000000	67.890	-10.8241
243.000000	67.863	-10.6978
247.000000	67.832	-10.5421
250.000000	67.812	-10.4214
254.000000	67.785	-10.2459
258.000000	67.758	-10.0894
262.000000	67.731	-9.9337
265.000000	67.711	-9.8144
269.000000	67.688	-9.6435
272.000000	67.672	-9.5157
276.000000	67.652	-9.3459
280.000000	67.629	-9.1592
285.000000	67.601	-8.9301
290.000000	67.574	-8.7117
295.000000	67.553	-8.4918
300.000000	67.533	-8.2776
304.000000	67.515	-8.1084
307.000000	67.501	-7.9825
311.000000	67.485	-7.8092
315.000000	67.469	-7.6245
320.000000	67.452	-7.3960
325.000000	67.436	-7.1790
330.000000	67.416	-6.9384
335.000000	67.396	-6.7183
340.000000	67.382	-6.5294
345.000000	67.369	-6.3277
350.000000	67.356	-6.1284
355.000000	67.342	-5.9244
360.000000	67.326	-5.7247
365.000000	67.310	-5.5269
370.000000	67.298	-5.3277
375.000000	67.286	-5.1183
382.000000	67.265	-4.8363
387.000000	67.250	-4.6375
395.000000	67.231	-4.3147
400.000000	67.222	-4.1067
406.000000	67.211	-3.8465
412.000000	67.200	-3.5996
418.000000	67.189	-3.3621
425.000000	67.177	-3.0831
431.000000	67.168	-2.8364
437.000000	67.160	-2.5847
444.000000	67.149	-2.3015
450.000000	67.138	-2.0670
455.000000	67.131	-1.8728
462.000000	67.123	-1.5837
468.000000	67.116	-1.3353
475.000000	67.108	-1.0583
482.000000	67.100	-0.7828
487.000000	67.095	-0.5841
494.000000	67.087	-0.3099
500.000000	67.081	-0.0654
508.000000	67.076	0.2817
515.000000	67.073	0.5727
522.000000	67.067	0.8567
530.000000	67.061	1.2007
538.000000	67.060	1.5547
545.000000	67.059	1.8549
552.000000	67.060	2.1539
560.000000	67.062	2.5150
570.000000	67.065	2.9432
580.000000	67.070	3.3664
590.000000	67.076	3.8167
600.000000	67.083	4.2613
608.000000	67.090	4.6034
615.000000	67.096	4.9029
622.000000	67.100	5.2024
630.000000	67.108	5.5472
640.000000	67.123	5.9963
650.000000	67.137	6.4432
660.000000	67.151	6.8695
670.000000	67.168	7.2991
680.000000	67.188	7.7383
690.000000	67.207	8.1920
700.000000	67.227	8.6469
710.000000	67.247	9.0867
720.000000	67.270	9.5420
730.000000	67.293	10.0079
740.000000	67.320	10.4723
750.000000	67.349	10.9322
762.000000	67.387	11.4686
775.000000	67.430	12.0747
788.000000	67.476	12.6923
800.000000	67.520	13.2508
812.000000	67.561	13.7992
825.000000	67.609	14.3925
838.000000	67.660	14.9795
850.000000	67.709	15.5314
862.000000	67.765	16.0673
875.000000	67.830	16.6122
885.000000	67.882	17.0158
900.000000	67.966	17.6223
912.000000	68.037	18.0984
925.000000	68.114	18.5856
938.000000	68.197	19.0360
950.000000	68.277	19.4198
962.000000	68.362	19.7666
975.000000	68.455	20.1094
988.000000	68.551	20.4358
1000.000000	68.643	20.7084
1015.000000	68.770	20.9748
1030.000000	68.901	21.1919
1044.000000	69.022	21.3565
1060.000000	69.161	21.4886
1075.000000	69.287	21.5688
1090.000000	69.414	21.5921
1106.000000	69.546	21.5575
1120.000000	69.658	21.4894
1138.000000	69.795	21.3633
1150.000000	69.883	21.2544
1172.000000	70.036	21.0251
1180.000000	70.090	20.9208
1206.000000	70.262	20.5088
1220.000000	70.348	20.2711
1241.000000	70.469	19.9036
1250.000000	70.513	19.7412
1265.000000	70.570	19.4587
1280.000000	70.618	19.1614
1315.000000	70.719	18.4495
1320.000000	70.732	18.3476
1340.000000	70.777	17.9437
1360.000000	70.818	17.5506
1380.000000	70.856	17.1420
1400.000000	70.892	16.7247
1430.000000	70.938	16.1248
1450.000000	70.962	15.7537
1475.000000	70.991	15.2719
1500.000000	71.017	14.7829
1525.000000	71.041	14.3267
1550.000000	71.062	13.8637
1575.000000	71.079	13.3895
1600.000000	71.100	12.9561
1625.000000	71.142	12.5103
1650.000000	71.190	12.0506
1675.000000	71.237	11.6172
1700.000000	71.280	11.1794
1725.000000	71.320	10.7295
1750.000000	71.359	10.2977
1775.000000	71.396	9.8674
1800.000000	71.431	9.4146
1825.000000	71.465	8.9659
1850.000000	71.495	8.5350
1875.000000	71.522	8.1059
1900.000000	71.549	7.6626
1925.000000	71.576	7.2065
1950.000000	71.601	6.7525
1975.000000	71.622	6.2996
2000.000000	71.639	5.8550
2030.000000	71.649	5.3212
2060.000000	71.657	4.7885
2090.000000	71.665	4.2442
2120.000000	71.669	3.7041
2140.000000	71.671	3.3486
2180.000000	71.668	2.6458
2200.000000	71.664	2.2971
2240.000000	71.656	1.5930
2270.000000	71.648	1.0658
2300.000000	71.638	0.5491
2330.000000	71.623	0.0383
2360.000000	71.606	-0.4698
2400.000000	71.579	-1.1460
2430.000000	71.558	-1.6605
2470.000000	71.526	-2.3444
2500.000000	71.497	-2.8611
2540.000000	71.450	-3.5539
2580.000000	71.393	-4.2626
2620.000000	71.325	-4.9725
2650.000000	71.263	-5.4961
2690.000000	71.166	-6.1748
2720.000000	71.077	-6.6327
2760.000000	70.939	-7.1147
2800.000000	70.783	-7.3946
2850.000000	70.577	-7.3539
2900.000000	70.387	-6.8273
2950.000000	70.244	-5.9154
3000.000000	70.163	-4.8521
3040.000000	70.137	-4.0036
3070.000000	70.135	-3.4169
3110.000000	70.150	-2.7208
3150.000000	70.180	-2.1204
3200.000000	70.228	-1.4738
3250.000000	70.286	-0.9374
3300.000000	70.352	-0.4952
3350.000000	70.428	-0.1222
3400.000000	70.508	0.1862
3450.000000	70.597	0.4256
3500.000000	70.692	0.5887
3550.000000	70.795	0.6780
3600.000000	70.902	0.6816
3650.000000	71.015	0.5931
3700.000000	71.129	0.4049
3750.000000	71.245	0.1243
3820.000000	71.405	-0.4405
3870.000000	71.518	-0.9619
3950.000000	71.691	-1.9675
4000.000000	71.797	-2.7390
4060.000000	71.917	-3.8163
4120.000000	72.028	-5.1009
4180.000000	72.121	-6.6109
4250.000000	72.196	-8.6733
4310.000000	72.220	-10.6633
4370.000000	72.201	-12.8103
4440.000000	72.117	-15.4494
4500.000000	71.985	-17.7153
4550.000000	71.829	-19.5239
4620.000000	71.538	-21.8163
4680.000000	71.231	-23.4715
4750.000000	70.821	-24.9185
4820.000000	70.368	-25.7550
4870.000000	70.027	-25.9436
4940.000000	69.539	-25.6267
5000.000000	69.122	-24.8203
5080.000000	68.580	-23.0152
5150.000000	68.148	-20.7895
5220.000000	67.775	-18.0061
5300.000000	67.441	-14.2123
5380.000000	67.233	-9.8781
5450.000000	67.179	-5.7805
5520.000000	67.270	-1.5998
5600.000000	67.564	2.9259
5700.000000	68.197	7.4817
5800.000000	69.043	9.8900
5900.000000	69.924	9.3662
6000.000000	70.599	5.9860
6080.000000	70.860	2.0207
6150.000000	70.867	-1.5455
6220.000000	70.704	-4.5992
6300.000000	70.398	-7.0618
6400.000000	69.989	-8.5197
6500.000000	69.610	-8.4843
6600.000000	69.304	-7.4011
6700.000000	69.091	-5.6363
6800.000000	68.980	-3.4926
6900.000000	68.967	-1.1717
7000.000000	69.052	1.1443
7100.000000	69.235	3.2857
7200.000000	69.496	5.0831
7300.000000	69.816	6.3835
7400.000000	70.172	7.1048
7500.000000	70.552	7.3075
7620.000000	71.042	6.6899
7750.000000	71.549	4.5576
7880.000000	71.918	0.9589
8000.000000	72.039	-3.2055
8120.000000	71.868	-7.5122
8250.000000	71.438	-11.5569
8380.000000	70.852	-14.4488
8500.000000	70.253	-16.1355
8620.000000	69.574	-17.0173
8750.000000	68.866	-16.0457
8850.000000	68.434	-14.7735
9000.000000	67.896	-12.3991
9120.000000	67.569	-10.2002
9250.000000	67.325	-7.7200
9380.000000	67.196	-5.3245
9500.000000	67.177	-3.3563
9620.000000	67.236	-1.7846
9750.000000	67.363	-0.7475
9880.000000	67.526	-0.6159
10000.000000	67.673	-1.3674
10150.000000	67.787	-3.3351
10300.000000	67.725	-5.8257
10440.000000	67.500	-8.0006
10600.000000	67.072	-9.9168
10750.000000	66.505	-10.7643
10900.000000	65.824	-9.8903
11060.000000	65.166	-6.4571
11200.000000	64.849	-1.8901
11380.000000	64.935	3.9208
11500.000000	65.200	6.6770
11720.000000	65.781	8.9615
11800.000000	65.965	9.0490
12060.000000	66.338	7.8054
12200.000000	66.390	6.8415
12410.000000	66.333	5.7308
12500.000000	66.279	5.4277
12650.000000	66.167	5.1199
12800.000000	66.064	4.9359
13150.000000	65.933	3.9372
13200.000000	65.923	3.6169
13400.000000	65.869	1.6272
13600.000000	65.712	-1.5881
13800.000000	65.347	-5.7891
14000.000000	64.693	-10.1798
14300.000000	63.206	-15.0150
14500.000000	62.018	-16.2135
14750.000000	60.497	-15.4158
15000.000000	59.051	-12.5322
15250.000000	57.750	-7.9293
15500.000000	56.685	-1.7259
15750.000000	56.036	5.2513
16000.000000	55.829	10.2179
16250.000000	55.650	13.3818
16500.000000	55.411	18.3342
16750.000000	55.429	24.6959
17000.000000	55.785	31.1377
17250.000000	56.448	36.7552
17500.000000	57.371	40.8410
17750.000000	58.495	42.6079
18000.000000	59.683	41.2406
18250.000000	60.696	36.0993
18500.000000	61.248	27.6432
18750.000000	61.161	17.6570
19000.000000	60.456	8.1497
19250.000000	59.284	0.1286
19500.000000	57.762	-6.2737
19750.000000	55.973	-11.0077
